#Angle around the z x y axes.
#timestamp(ns), Azimuth , Pitch, Roll(degrees)
#Datetime: 05/07/2013 11:22:05
##########################################
#Activity: 10 - FOL - Fall forward lying - 10s
#Subject ID: 1
#First Name: sub1
#Last Name: sub1
#Age: 32
#Height(cm): 180
#Weight(kg): 85
#Gender: Male
##########################################


@DATA
1984140924000, 156.72792, 26.770998, 32.370655
1984145920000, 154.97945, 27.474724, 32.51862
1984150899000, 156.65761, 27.527332, 32.22504
1984156414000, 156.58128, 27.740482, 32.07416
1984160940000, 156.49706, 28.514042, 31.91899
1984165921000, 156.41159, 29.28518, 31.762438
1984170896000, 156.32127, 30.062288, 31.603226
1984175915000, 156.22493, 30.839197, 31.440338
1984180935000, 156.12625, 31.61312, 31.278992
1984185978000, 156.0289, 32.39315, 31.098173
1984190924000, 155.92245, 33.247288, 30.932154
1984195907000, 155.81697, 33.96704, 30.74693
1984200900000, 155.71295, 34.82462, 30.56037
1984205935000, 155.60469, 35.62729, 30.367458
1984210956000, 155.49547, 36.427116, 30.17541
1984215919000, 155.37906, 37.232418, 29.980686
1984220901000, 155.25859, 38.03393, 29.785583
1984226602000, 155.11977, 38.829964, 29.607948
1984230966000, 154.98825, 39.596542, 29.416348
1984235997000, 154.82196, 40.37532, 29.254038
1984240954000, 154.65579, 41.09973, 29.090008
1984245945000, 154.46863, 41.810566, 28.941866
1984250954000, 154.26422, 42.483135, 28.80984
1984255991000, 154.01047, 43.101665, 28.72673
1984260966000, 153.78407, 43.63361, 28.608707
1984265960000, 153.51686, 44.20491, 28.529804
1984270944000, 153.2337, 44.699215, 28.464827
1984275947000, 152.95645, 45.169533, 28.39016
1984280960000, 152.6794, 45.64945, 28.311005
1984285995000, 152.40526, 46.12799, 28.223967
1984290954000, 152.12907, 46.603497, 28.138454
1984296411000, 151.8555, 47.078648, 28.04303
1984300943000, 151.58495, 47.5473, 27.945992
1984305975000, 151.31804, 48.014996, 27.843899
1984310983000, 151.04767, 48.480026, 27.739332
1984315962000, 150.7884, 48.942863, 27.628233
1984320950000, 150.52692, 49.396744, 27.517616
1984326104000, 150.2697, 49.85073, 27.400003
1984331000000, 150.01672, 50.301643, 27.281399
1984336004000, 149.76636, 50.743942, 27.160063
1984340988000, 149.51945, 51.187073, 27.033047
1984345980000, 149.27724, 51.621178, 26.908216
1984350963000, 149.0367, 52.054363, 26.777283
1984356005000, 148.80304, 52.480366, 26.647308
1984360998000, 148.56819, 52.899746, 26.516329
1984366320000, 148.3406, 53.31949, 26.381815
1984371121000, 148.1176, 53.727898, 26.246946
1984375966000, 147.89543, 54.13486, 26.110882
1984380994000, 147.68083, 54.534557, 25.9742
1984386004000, 147.46712, 54.934246, 25.833246
1984391093000, 147.26036, 55.321274, 25.694387
1984396031000, 147.0551, 55.710346, 25.551884
1984400964000, 146.85475, 56.08776, 25.411552
1984406006000, 146.65558, 56.468044, 25.266586
1984411004000, 146.46509, 56.836105, 25.123657
1984415999000, 146.27145, 57.198914, 24.98398
1984420969000, 146.08876, 57.56301, 24.835968
1984425966000, 145.90303, 57.914337, 24.697617
1984431004000, 145.72708, 58.263287, 24.555275
1984436001000, 145.54834, 58.606804, 24.411797
1984440990000, 145.38063, 58.945328, 24.272314
1984445983000, 145.20999, 59.277508, 24.13379
1984450964000, 145.04422, 59.606133, 23.99118
1984456006000, 144.88597, 59.92728, 23.853796
1984460974000, 144.72536, 60.24652, 23.71455
1984466008000, 144.57176, 60.557644, 23.57649
1984470997000, 144.4192, 60.86436, 23.43956
1984475970000, 144.26718, 61.184338, 23.294147
1984481013000, 144.11969, 61.49679, 23.151716
1984485992000, 143.97342, 61.80624, 23.008608
1984490993000, 143.8313, 62.10898, 22.867271
1984495982000, 143.69464, 62.404396, 22.728983
1984500963000, 143.56004, 62.698215, 22.588865
1984506057000, 143.42874, 62.984837, 22.451614
1984510995000, 143.30135, 63.265812, 22.315176
1984515997000, 143.17708, 63.54334, 22.180347
1984520970000, 143.05588, 63.81324, 22.046907
1984525966000, 142.93791, 64.08111, 21.913107
1984531014000, 142.82149, 64.34339, 21.78042
1984535997000, 142.71263, 64.60146, 21.649214
1984540987000, 142.60085, 64.852394, 21.521206
1984545969000, 142.4996, 65.10527, 21.386791
1984551803000, 142.39162, 65.34507, 21.264061
1984556014000, 142.2964, 65.58615, 21.13427
1984560997000, 142.1945, 65.82003, 21.010778
1984565990000, 142.10011, 66.048836, 20.886723
1984570965000, 142.0052, 66.27264, 20.766443
1984575963000, 141.91339, 66.49442, 20.643759
1984581002000, 141.82475, 66.709366, 20.525602
1984586005000, 141.73901, 66.923225, 20.407066
1984590996000, 141.65263, 67.13085, 20.289139
1984595966000, 141.57436, 67.33447, 20.174973
1984600963000, 141.49405, 67.535965, 20.059277
1984606013000, 141.41719, 67.731705, 19.947355
1984611003000, 141.34431, 67.92385, 19.83603
1984615998000, 141.26935, 68.11155, 19.726625
1984621630000, 141.19826, 68.29648, 19.619226
1984625970000, 141.13228, 68.47417, 19.513561
1984631019000, 141.05902, 68.65299, 19.407703
1984636002000, 140.99692, 68.82132, 19.30732
1984640990000, 140.93169, 68.993256, 19.202702
1984645983000, 140.86646, 69.15649, 19.1051
1984650966000, 140.80473, 69.318924, 19.004744
1984656004000, 140.74715, 69.47742, 18.908606
1984661007000, 140.68279, 69.63193, 18.812859
1984666002000, 140.6306, 69.7847, 18.717754
1984670996000, 140.58957, 69.95327, 18.597492
1984675972000, 140.55392, 70.11882, 18.47847
1984681002000, 140.5164, 70.28265, 18.359701
1984685992000, 140.48547, 70.44142, 18.245333
1984691460000, 140.44556, 70.59754, 18.132027
1984695982000, 140.4178, 70.75001, 18.020311
1984700964000, 140.38036, 70.89937, 17.912249
1984706001000, 140.35393, 71.045235, 17.804546
1984710992000, 140.31995, 71.18604, 17.702436
1984715996000, 140.29324, 71.32479, 17.599936
1984720973000, 140.26335, 71.4615, 17.49979
1984725968000, 140.23695, 71.5915, 17.404238
1984731058000, 140.21065, 71.72095, 17.308434
1984736010000, 140.18492, 71.84558, 17.216421
1984743044000, 140.15904, 71.97012, 17.124088
1984746017000, 140.13629, 72.087296, 17.036554
1984750967000, 140.1121, 72.20553, 16.948866
1984756006000, 140.08633, 72.31988, 16.863277
1984761541000, 140.06537, 72.430565, 16.780323
1984765976000, 140.04231, 72.53836, 16.70005
1984770967000, 140.01651, 72.64676, 16.618687
1984776020000, 139.99944, 72.74912, 16.540932
1984781072000, 139.97627, 72.85186, 16.463886
1984786046000, 139.9571, 72.95226, 16.387337
1984791034000, 139.9387, 73.052895, 16.309233
1984796072000, 139.9173, 73.14869, 16.2373
1984801028000, 139.90044, 73.24593, 16.160477
1984807127000, 139.8819, 73.337425, 16.090134
1984811288000, 139.86469, 73.432976, 16.015411
1984816083000, 139.84544, 73.52134, 15.946233
1984821066000, 139.83336, 73.60981, 15.876627
1984826027000, 139.81555, 73.69996, 15.8048525
1984831075000, 139.80264, 73.785995, 15.736723
1984836381000, 139.78622, 73.871956, 15.668516
1984841066000, 139.77211, 73.95582, 15.601255
1984846035000, 139.75923, 74.03693, 15.536466
1984850966000, 139.74313, 74.12103, 15.468524
1984856107000, 139.72984, 74.19688, 15.408301
1984861405000, 139.71608, 74.27577, 15.344477
1984866030000, 139.70036, 74.35005, 15.285059
1984871006000, 139.69374, 74.448456, 15.204819
1984876785000, 139.68443, 74.54118, 15.129894
1984881079000, 139.67294, 74.63451, 15.054211
1984886176000, 139.66504, 74.72321, 14.981548
1984891077000, 139.65489, 74.81218, 14.908346
1984896063000, 139.64554, 74.90121, 14.834829
1984901018000, 139.6338, 74.98522, 14.765518
1984906061000, 139.62555, 75.06904, 14.695169
1984911296000, 139.61598, 75.15114, 14.626533
1984916084000, 139.60686, 75.23302, 14.557302
1984921072000, 139.59807, 75.308586, 14.493733
1984926038000, 139.58798, 75.38583, 14.427658
1984931053000, 139.58316, 75.457634, 14.366828
1984936372000, 139.57317, 75.53064, 14.303842
1984941082000, 139.56744, 75.59874, 14.245209
1984946968000, 139.5604, 75.66634, 14.186837
1984951033000, 139.5531, 75.731064, 14.131112
1984956097000, 139.54747, 75.79345, 14.076527
1984961075000, 139.53735, 75.85591, 14.022543
1984966019000, 139.53549, 75.911156, 13.974222
1984971003000, 139.52286, 75.96894, 13.924459
1984976010000, 139.51942, 76.02367, 13.876161
1984981045000, 139.51288, 76.07789, 13.828789
1984986121000, 139.50673, 76.12709, 13.786087
1984991027000, 139.50131, 76.18134, 13.737741
1984996017000, 139.49544, 76.23155, 13.693612
1985001001000, 139.48898, 76.282265, 13.64855
1985007227000, 139.47917, 76.33252, 13.603761
1985011192000, 139.47313, 76.38158, 13.559525
1985016714000, 139.46088, 76.4333, 13.512898
1985021010000, 139.44733, 76.48208, 13.468828
1985025996000, 139.43452, 76.52948, 13.425814
1985032210000, 139.41656, 76.58031, 13.379063
1985036108000, 139.39984, 76.6265, 13.33698
1985041084000, 139.38235, 76.67415, 13.293072
1985046003000, 139.36302, 76.71944, 13.251431
1985050974000, 139.35098, 76.76242, 13.2116585
1985056049000, 139.33473, 76.80249, 13.174776
1985061085000, 139.32614, 76.84236, 13.137499
1985066025000, 139.325, 76.87803, 13.104674
1985071011000, 139.32387, 76.94329, 13.043049
1985076058000, 139.33434, 77.00325, 12.98612
1985086037000, 139.34047, 77.0587, 12.933485
1985091145000, 139.35165, 77.1126, 12.881809
1985096010000, 139.36021, 77.15863, 12.837479
1985101000000, 139.3669, 77.20614, 12.791412
1985106074000, 139.3759, 77.24487, 12.753674
1985111269000, 139.38174, 77.28724, 12.71206
1985116261000, 139.3862, 77.32415, 12.675572
1985121080000, 139.39165, 77.36068, 12.639281
1985126023000, 139.39261, 102.6055, 12.605493
1985131059000, 139.39594, 102.57159, 12.571452
1985136056000, 139.39395, 102.540184, 12.539751
1985141085000, 139.39615, 102.506645, 12.505855
1985146091000, 139.39612, 102.47325, 12.471927
1985151026000, 139.39372, 102.44339, 12.44139
1985156074000, 139.39293, 102.408646, 12.405978
1985161155000, 139.39238, 102.37209, 12.368615
1985166074000, 139.3906, 102.34395, 12.339527
1985171068000, 139.38748, 102.308334, 12.302968
1985181112000, 139.3839, 102.272484, 12.266044
1985186263000, 139.38205, 102.24057, 12.233032
1985191018000, 139.3795, 102.20589, 12.197059
1985196009000, 139.37648, 102.1716, 12.161534
1985201850000, 139.37411, 102.13884, 12.127347
1985207207000, 139.36983, 102.10646, 12.0935
1985211248000, 139.37177, 102.07322, 12.058645
1985216012000, 139.36769, 102.043655, 12.027339
1985221010000, 139.36241, 102.01289, 11.994674
1985226005000, 139.36028, 101.985695, 11.965403
1985231040000, 139.35542, 101.95457, 11.932193
1985236036000, 139.3501, 101.92724, 11.902443
1985241298000, 139.33871, 101.900925, 11.873654
1985246021000, 139.33012, 101.87351, 11.843767
1985250992000, 139.3131, 101.84773, 11.815217
1985256034000, 139.30257, 101.82372, 11.788639
1985261080000, 139.28197, 101.80111, 11.763222
1985266100000, 139.26353, 101.77991, 11.739292
1985271088000, 139.26497, 101.74559, 11.702443
1985276142000, 139.2633, 101.71318, 11.667395
1985285813000, 139.26321, 101.68266, 11.634054
1985286330000, 139.25974, 101.65203, 11.601001
1985291008000, 139.25735, 101.62146, 11.567767
1985296108000, 139.25511, 101.59343, 11.537184
1985301049000, 139.25392, 101.56372, 11.504536
1985306061000, 139.24997, 101.537056, 11.475258
1985310929000, 139.25162, 101.50703, 11.442361
1985315898000, 139.24707, 101.479965, 11.412056
1985320907000, 139.24973, 101.449684, 11.378782
1985325896000, 139.24391, 101.424515, 11.350162
1985330962000, 139.24542, 101.39476, 11.317126
1985335913000, 139.24123, 101.36538, 11.284406
1985341062000, 139.2384, 101.34034, 11.25565
1985345896000, 139.23596, 101.31106, 11.223197
1985351032000, 139.23096, 101.28318, 11.1913
1985356077000, 139.22673, 101.25705, 11.161621
1985361037000, 139.22176, 101.22807, 11.1288
1985366042000, 139.21564, 101.203674, 11.100675
1985371015000, 139.20872, 101.17834, 11.070884
1985376000000, 139.19986, 101.15451, 11.0434675
1985381078000, 139.1918, 101.13182, 11.016093
1985386116000, 139.17834, 101.11195, 10.991968
1985391099000, 139.16992, 101.09273, 10.968314
1985396065000, 139.15627, 101.07475, 10.945689
1985401030000, 139.14279, 101.058754, 10.924732
1985406072000, 139.12802, 101.04385, 10.905367
1985411601000, 139.11096, 101.03168, 10.887889
1985416079000, 139.09262, 101.01843, 10.870117
1985421073000, 139.06958, 101.01017, 10.85644
1985426028000, 139.04495, 101.000694, 10.842304
1985431064000, 139.01906, 100.99402, 10.830641
1985436160000, 138.9906, 100.98541, 10.817696
1985441017000, 138.96338, 100.97999, 10.808024
1985446006000, 138.93436, 100.972244, 10.795852
1985450969000, 138.90637, 100.96608, 10.786258
1985456082000, 138.88216, 100.95802, 10.774888
1985461045000, 138.85509, 100.951584, 10.764896
1985466091000, 138.83202, 100.94159, 10.752934
1985471019000, 138.82951, 100.92493, 10.726007
1985476024000, 138.82639, 100.90221, 10.694004
1985481053000, 138.86, 100.85394, 10.633398
1985486081000, 138.89442, 100.80999, 10.576338
1985491090000, 138.93204, 100.76158, 10.516447
1985495984000, 139.01988, 100.68187, 10.418196
1985501026000, 139.11267, 100.60377, 10.3227415
1985506492000, 139.2971, 100.46526, 10.154346
1985511189000, 139.47672, 100.33441, 9.994333
1985516043000, 139.78802, 100.10983, 9.711492
1985521002000, 140.08473, 99.90784, 9.449203
1985527036000, 140.36256, 99.72238, 9.198055
1985531022000, 140.59645, 99.54611, 8.935438
1985536045000, 140.82231, 99.38853, 8.684261
1985541015000, 141.0283, 99.24989, 8.434473
1985546006000, 141.22955, 99.12416, 8.189969
1985551008000, 141.43236, 99.01574, 7.9394975
1985557231000, 141.6297, 98.92105, 7.695354
1985561058000, 141.8344, 98.83961, 7.4409113
1985566025000, 142.03883, 98.77014, 7.1926055
1985571091000, 142.25743, 98.71914, 6.925138
1985576005000, 142.47511, 98.68297, 6.667391
1985581420000, 142.67963, 98.669495, 6.4308705
1985586272000, 142.88223, 98.673325, 6.2035737
1985591021000, 143.07877, 98.68244, 5.9931154
1985597020000, 143.2676, 98.71016, 5.8002124
1985601003000, 143.45634, 98.7418, 5.610459
1985607123000, 143.6228, 98.7781, 5.447391
1985611048000, 143.78566, 98.81391, 5.2859445
1985615988000, 143.93768, 98.84937, 5.147927
1985621020000, 144.08684, 98.888115, 5.015896
1985625970000, 144.22086, 98.93725, 4.8938756
1985631889000, 144.3563, 98.98793, 4.779596
1985636015000, 144.47885, 99.03537, 4.679385
1985641032000, 144.5997, 99.08632, 4.5839725
1985646059000, 144.7129, 99.13758, 4.497412
1985651000000, 144.81949, 99.19236, 4.414416
1985656049000, 144.9317, 99.24768, 4.333247
1985661359000, 145.03818, 99.30776, 4.257149
1985666915000, 145.1467, 99.36771, 4.1817436
1985671069000, 145.25423, 99.43539, 4.112704
1985676018000, 145.35849, 99.50301, 4.0462627
1985681045000, 145.46506, 99.57463, 3.9937441
1985686383000, 145.56764, 99.64713, 3.9439497
1985691022000, 145.67528, 99.72476, 3.9045537
1985696070000, 145.7707, 99.80544, 3.8623273
1985700977000, 145.87747, 99.88365, 3.8293147
1985706119000, 145.97821, 99.96441, 3.7965512
1985711140000, 146.07426, 100.0417, 3.7677808
1985716083000, 146.16641, 100.120926, 3.7405005
1985721066000, 146.24731, 100.186134, 3.7212212
1985726009000, 146.32625, 100.251564, 3.7031877
1985731014000, 146.39902, 100.32131, 3.6836028
1985736679000, 146.47072, 100.37893, 3.660093
1985741043000, 146.52971, 100.446144, 3.640108
1985746016000, 146.58556, 100.50762, 3.614
1985751009000, 146.63756, 100.56895, 3.5909853
1985756079000, 146.67387, 100.62461, 3.5664868
1985761040000, 146.7118, 100.68078, 3.5505328
1985766034000, 146.73825, 100.73148, 3.5335076
1985771010000, 146.76006, 100.79306, 3.5233984
1985775980000, 146.79033, 100.86061, 3.5129025
1985782945000, 146.81961, 100.936295, 3.5100963
1985786015000, 146.84526, 101.011505, 3.497145
1985791026000, 146.8817, 101.0854, 3.4922454
1985796000000, 146.9219, 101.15093, 3.4886763
1985800999000, 146.97354, 101.23191, 3.4732966
1985806039000, 147.0321, 101.307106, 3.4629295
1985811051000, 147.1141, 101.38913, 3.4474251
1985816089000, 147.20158, 101.46548, 3.4382002
1985820990000, 147.30894, 101.54576, 3.4300246
1985826004000, 147.42816, 101.61478, 3.4272947
1985832690000, 147.57393, 101.694496, 3.4164863
1985836363000, 147.7145, 101.75985, 3.4102995
1985841061000, 147.88931, 101.828804, 3.4108307
1985846065000, 148.05821, 101.870476, 3.411715
1985852055000, 148.2323, 101.91423, 3.420461
1985856084000, 148.39851, 101.918, 3.4227648
1985861047000, 148.57071, 101.91945, 3.428843
1985865999000, 148.73454, 101.89531, 3.4441373
1985871010000, 148.89594, 101.865616, 3.4599388
1985876038000, 149.05115, 101.82569, 3.488216
1985881062000, 149.20287, 101.78137, 3.519072
1985886043000, 149.36041, 101.73789, 3.5601306
1985891095000, 149.50896, 101.69224, 3.6052418
1985896095000, 149.67206, 101.644104, 3.6697168
1985901031000, 149.8336, 101.59796, 3.7345843
1985906068000, 149.98595, 101.544525, 3.815789
1985911113000, 150.13551, 101.49082, 3.8941033
1985916086000, 150.28258, 101.4438, 3.9724267
1985921033000, 150.42389, 101.39558, 4.0614595
1985926035000, 150.5562, 101.355156, 4.150051
1985931080000, 150.68448, 101.31901, 4.247134
1985936060000, 150.80176, 101.29012, 4.340812
1985940982000, 150.90416, 101.267166, 4.4397254
1985946069000, 150.99754, 101.252464, 4.5332747
1985950970000, 151.07925, 101.24497, 4.6257954
1985956028000, 151.15932, 101.26086, 4.7241387
1985960996000, 151.23383, 101.28479, 4.825324
1985966040000, 151.31169, 101.32284, 4.923218
1985970983000, 151.38766, 101.367226, 5.022702
1985976021000, 151.46062, 101.425964, 5.118061
1985981047000, 151.53525, 101.48604, 5.214018
1985986059000, 151.6169, 101.55345, 5.3031683
1985991059000, 151.69942, 101.6176, 5.3931518
1985996079000, 151.785, 101.6757, 5.469837
1986001022000, 151.87311, 101.72518, 5.5437975
1986006085000, 151.96101, 101.766075, 5.5972953
1986011419000, 152.04709, 101.79843, 5.6505375
1986016127000, 152.14413, 101.82247, 5.6827617
1986021075000, 152.24077, 101.83967, 5.712822
1986025989000, 152.32732, 101.847404, 5.725853
1986031067000, 152.41096, 101.85509, 5.7434773
1986036012000, 152.49857, 101.83922, 5.736251
1986041085000, 152.58302, 101.82906, 5.732862
1986045979000, 152.66037, 101.80505, 5.7073402
1986051030000, 152.74556, 101.781235, 5.6798534
1986056107000, 152.82712, 101.762115, 5.654394
1986062078000, 152.90862, 101.74467, 5.6241226
1986066094000, 152.98904, 101.726524, 5.596305
1986071069000, 153.07188, 101.71307, 5.568361
1986076039000, 153.15605, 101.703705, 5.5418873
1986081084000, 153.23387, 101.66666, 5.529909
1986086108000, 153.30931, 101.632996, 5.520869
1986091024000, 153.38086, 101.58482, 5.5350966
1986096073000, 153.44708, 101.54434, 5.5488806
1986100969000, 153.50508, 101.4956, 5.582064
1986106059000, 153.5556, 101.452515, 5.6086197
1986111001000, 153.59708, 101.41874, 5.634433
1986116123000, 153.63806, 101.37484, 5.679071
1986121067000, 153.66888, 101.334335, 5.714753
1986126023000, 153.70114, 101.29296, 5.770458
1986131445000, 153.72269, 101.25816, 5.8192143
1986136037000, 153.74178, 101.21374, 5.876142
1986141058000, 153.75159, 101.17852, 5.926129
1986145998000, 153.76532, 101.13777, 5.9841332
1986151001000, 153.7713, 101.10114, 6.036104
1986156081000, 153.7743, 101.05637, 6.107636
1986161046000, 153.77844, 101.01624, 6.1726823
1986166003000, 153.7757, 100.95606, 6.247142
1986170997000, 153.77107, 100.90265, 6.3197703
1986176007000, 153.76791, 100.84455, 6.38688
1986180998000, 153.78099, 100.77708, 6.49227
1986186054000, 153.7952, 100.705986, 6.5898266
1986191030000, 153.81076, 100.63454, 6.705003
1986196002000, 153.82603, 100.56307, 6.8174353
1986200998000, 153.84927, 100.48376, 6.9420176
1986206144000, 153.87004, 100.415245, 7.065863
1986211129000, 153.89206, 100.3464, 7.190857
1986216060000, 153.91478, 100.278786, 7.3241644
1986221001000, 153.9399, 100.22133, 7.464724
1986226009000, 153.96529, 100.17014, 7.6164827
1986231060000, 153.99428, 100.13084, 7.776641
1986236002000, 154.03448, 100.1154, 7.96164
1986241036000, 154.07162, 100.11348, 8.15771
1986246215000, 154.12254, 100.14637, 8.37819
1986251002000, 154.16566, 100.19474, 8.610775
1986256061000, 154.21465, 100.25969, 8.856453
1986261034000, 154.26384, 100.37828, 9.128036
1986266076000, 154.3057, 100.5104, 9.409641
1986271006000, 154.34448, 100.66746, 9.697689
1986276001000, 154.36758, 100.83383, 9.987818
1986281075000, 154.37134, 101.01695, 10.285264
1986286052000, 154.36546, 101.217445, 10.590202
1986291067000, 154.33743, 101.40942, 10.8710375
1986296009000, 154.30301, 101.619934, 11.163112
1986301004000, 154.25739, 101.841255, 11.449423
1986306063000, 154.22179, 102.072655, 11.740209
1986311074000, 154.18848, 102.31109, 12.020846
1986316105000, 154.16774, 102.56045, 12.310266
1986321015000, 154.15746, 102.81363, 12.585858
1986325998000, 154.1576, 103.07131, 12.865908
1986331055000, 154.15973, 103.32157, 13.122918
1986336101000, 154.17, 103.57716, 13.386089
1986340998000, 154.18915, 103.80189, 13.592752
1986346082000, 154.2121, 104.02544, 13.800077
1986351776000, 154.24466, 104.253044, 14.012818
1986356046000, 154.26291, 104.47133, 14.20499
1986361099000, 154.28412, 104.69031, 14.398776
1986365999000, 154.25603, 104.91698, 14.629138
1986371049000, 154.22984, 105.136536, 14.852126
1986376379000, 154.13521, 105.31921, 15.043879
1986382029000, 154.08923, 105.495, 15.227581
1986385998000, 154.05646, 105.65018, 15.39955
1986391015000, 154.0858, 105.80206, 15.565262
1986396003000, 154.15208, 105.93448, 15.710622
1986400981000, 154.25626, 106.05472, 15.839204
1986406065000, 154.42392, 106.16091, 15.955382
1986411059000, 154.6125, 106.22966, 16.038721
1986416014000, 154.80194, 106.29433, 16.117805
1986421475000, 155.00185, 106.340836, 16.185104
1986425999000, 155.19357, 106.38489, 16.248827
1986431062000, 155.37059, 106.416855, 16.29732
1986436035000, 155.5333, 106.3981, 16.29986
1986441022000, 155.68068, 106.37613, 16.295523
1986446015000, 155.80745, 106.32975, 16.266201
1986451038000, 155.91858, 106.27921, 16.229479
1986456089000, 156.0122, 106.20662, 16.169405
1986461101000, 156.09128, 106.13067, 16.103392
1986466000000, 156.1673, 106.05036, 16.032288
1986471076000, 156.22818, 105.97525, 15.96398
1986476011000, 156.28426, 105.899025, 15.892855
1986481062000, 156.33998, 105.8412, 15.839325
1986486122000, 156.39088, 105.792336, 15.792287
1986491045000, 156.43384, 74.22012, 15.778543
1986496078000, 156.46545, 74.217125, 15.776227
1986500976000, 156.49548, 74.177956, 15.804269
1986506111000, 156.50996, 74.12097, 15.844768
1986511320000, 156.53307, 74.02005, 15.92051
1986516078000, 156.54454, 73.909836, 15.998147
1986521064000, 156.57028, 73.775085, 16.093784
1986526001000, 156.58766, 73.62947, 16.192701
1986531074000, 156.60101, 73.479416, 16.289097
1986536100000, 156.62044, 73.324425, 16.38278
1986541078000, 156.63913, 73.16305, 16.474379
1986545970000, 156.6565, 73.002686, 16.557215
1986551027000, 156.6693, 72.83055, 16.64326
1986556040000, 156.68875, 72.65664, 16.723066
1986561073000, 156.7105, 72.47899, 16.795845
1986566051000, 156.73073, 72.29474, 16.866327
1986571023000, 156.77892, 72.093155, 16.943626
1986575999000, 156.83453, 71.88368, 17.016352
1986581006000, 156.91092, 71.635, 17.125353
1986586055000, 157.00673, 71.37891, 17.228113
1986591058000, 157.12056, 71.07473, 17.380367
1986596004000, 157.24722, 70.7628, 17.528418
1986601001000, 157.39119, 70.38892, 17.743078
1986607757000, 157.54417, 70.00963, 17.955227
1986610995000, 157.705, 69.624825, 18.169048
1986616023000, 157.8526, 69.23704, 18.398058
1986621020000, 157.99377, 68.84269, 18.633497
1986625997000, 158.09482, 68.475746, 18.86342
1986631095000, 158.16074, 68.098625, 19.105822
1986636022000, 158.16638, 67.78358, 19.308249
1986641097000, 158.12907, 67.46029, 19.524551
1986645976000, 158.02682, 67.224884, 19.668978
1986651001000, 157.8963, 66.99212, 19.81667
1986656034000, 157.7461, 66.85158, 19.868097
1986661044000, 157.60916, 66.73246, 19.906187
1986666036000, 157.47983, 66.67757, 19.86266
1986671001000, 157.4324, 66.65764, 19.77078
1986676818000, 157.46439, 66.68554, 19.652254
1986681103000, 157.51889, 66.736496, 19.48423
1986686082000, 157.72797, 66.8158, 19.250116
1986691021000, 158.11649, 66.63363, 19.133713
1986696002000, 158.56573, 66.49191, 18.972557
1986700976000, 159.38695, 65.70665, 19.070095
1986706083000, 160.19006, 65.02148, 19.092026
1986711081000, 160.93423, 64.436264, 19.102924
1986716054000, 161.68564, 63.91806, 19.060432
1986720975000, 162.52063, 63.217552, 19.084963
1986726011000, 163.34145, 62.57445, 19.06958
1986731039000, 164.142, 61.98578, 19.024693
1986736057000, 165.01337, 61.206215, 19.03653
1986741038000, 165.94864, 60.17493, 19.115341
1986746507000, 166.8238, 59.206963, 19.172543
1986750997000, 167.61903, 58.294075, 19.222328
1986756037000, 168.44467, 57.081005, 19.34236
1986761078000, 169.21538, 55.903214, 19.47076
1986766066000, 169.94711, 54.41926, 19.69085
1986771061000, 170.75592, 52.95735, 19.901949
1986776015000, 171.49117, 51.291218, 20.182001
1986781082000, 172.1676, 49.64864, 20.492878
1986786072000, 172.80434, 48.037365, 20.937767
1986791068000, 173.35971, 46.35468, 21.421417
1986796045000, 173.79605, 44.71533, 21.995401
1986800999000, 174.13383, 43.05855, 22.61448
1986805925000, 174.35493, 41.470425, 23.359692
1986810918000, 174.51352, 39.8815, 24.130053
1986815893000, 174.62515, 38.36603, 25.001778
1986820900000, 174.7273, 36.870674, 25.873981
1986825890000, 174.87234, 35.449642, 26.889568
1986831465000, 175.08556, 34.084362, 27.834238
1986835928000, 175.4262, 32.81482, 28.922686
1986840901000, 175.8299, 31.64516, 29.916721
1986845903000, 176.31093, 30.609795, 31.02693
1986850993000, 176.82512, 29.670324, 32.026737
1986856036000, 177.3736, 28.8474, 32.940926
1986861019000, 177.89285, 28.102528, 33.81205
1986865972000, 178.38467, 27.45101, 34.498203
1986870995000, 178.91096, 26.77056, 35.15454
1986875970000, 179.47514, 26.08503, 35.76353
1986881482000, 180.0641, 25.39477, 36.30786
1986886083000, 180.68152, 24.677748, 36.8498
1986890978000, 181.27728, 23.95933, 37.283127
1986896019000, 181.88734, 23.23129, 37.753647
1986901091000, 182.46701, 22.511116, 38.08165
1986906045000, 183.0525, 21.816933, 38.448917
1986911040000, 183.66241, 21.110027, 38.7353
1986916029000, 184.26698, 20.462315, 39.011856
1986920978000, 184.94733, 19.793726, 39.27661
1986925996000, 185.62814, 19.17679, 39.518604
1986931768000, 186.42574, 18.50164, 39.77253
1986936048000, 187.23785, 17.851248, 39.91816
1986941046000, 188.09964, 17.143175, 40.023487
1986946002000, 188.98865, 16.379004, 39.98856
1986951003000, 189.91374, 15.5352125, 39.787823
1986956044000, 190.95285, 14.503629, 39.65844
1986961052000, 191.99031, 13.386543, 39.30131
1986966113000, 193.08092, 12.172704, 39.008408
1986971168000, 194.14401, 10.8014555, 38.697193
1986975971000, 194.80771, 9.773642, 38.3629
1986981088000, 195.40488, 8.722304, 38.12185
1986986047000, 195.93498, 7.733196, 38.11562
1986991102000, 196.30711, 6.9734845, 38.360687
1986996003000, 196.5817, 6.397724, 38.689
1987001861000, 196.80898, 6.017346, 39.148735
1987007201000, 196.91191, 5.906785, 39.593616
1987011094000, 197.05772, 5.8608155, 40.003532
1987016021000, 197.02066, 6.0642653, 40.343105
1987020975000, 196.88698, 6.349884, 40.67664
1987025999000, 196.48706, 6.8163786, 41.078182
1987031059000, 195.87225, 7.4109616, 41.622494
1987036063000, 195.49898, 7.7625933, 42.589363
1987041091000, 195.02492, 8.10966, 43.799137
1987045981000, 194.44379, 8.490686, 45.17359
1987051013000, 194.03503, 8.706654, 46.705048
1987056097000, 193.85806, 8.7303915, 48.36234
1987061031000, 193.606, 8.840798, 50.04385
1987066025000, 193.75975, 8.699529, 51.71365
1987071047000, 205.31143, 8.649938, 53.324963
1987075999000, 206.01352, 8.466704, 54.779335
1987083223000, 206.42647, 8.228194, 55.87912
1987086073000, 206.77116, 7.91323, 57.010117
1987091038000, 207.01125, 7.6328697, 57.657726
1987096010000, 207.15985, 7.306849, 58.223373
1987101001000, 207.2744, 6.980886, 58.61744
1987106071000, 207.21938, 6.741007, 58.73202
1987111035000, 207.11577, 6.4990406, 58.757607
1987116057000, 206.961, 6.30132, 58.702057
1987120983000, 206.72112, 6.165367, 58.46915
1987126047000, 206.42772, 6.106988, 58.15679
1987131069000, 206.1395, 6.1298194, 57.720394
1987136120000, 205.84505, 6.267672, 57.18016
1987141049000, 205.56442, 6.483084, 56.528847
1987146052000, 205.33044, 6.8050613, 55.798477
1987151075000, 205.13843, 7.2111564, 55.04407
1987155956000, 204.87164, 7.6802006, 54.002926
1987160943000, 193.91678, 8.157692, 53.012688
1987165946000, 193.5158, 8.625253, 51.930607
1987170902000, 193.14961, 9.0764885, 50.8865
1987175900000, 192.81688, 9.503396, 49.89328
1987180945000, 192.51878, 9.927706, 48.923996
1987185939000, 192.2471, 10.300126, 47.87206
1987190905000, 192.00847, 10.666034, 46.746174
1987195896000, 192.06218, 10.77871, 45.663544
1987200954000, 192.06503, 10.900961, 44.502136
1987205985000, 192.11052, 10.99705, 43.445854
1987211011000, 192.05865, 11.122439, 42.289143
1987215945000, 192.03325, 11.187024, 41.27965
1987221061000, 191.87257, 11.332786, 40.24802
1987225937000, 191.69083, 11.423662, 39.3537
1987231000000, 191.36775, 11.595947, 38.517895
1987236010000, 190.92792, 11.78477, 37.85051
1987240995000, 190.38313, 11.979714, 37.37661
1987246052000, 189.7265, 12.183831, 37.16485
1987250987000, 189.02966, 12.360805, 37.08045
1987256559000, 188.18317, 12.555525, 37.417976
1987261034000, 187.30751, 12.7230425, 37.829365
1987266088000, 186.43625, 12.863364, 38.437214
1987270990000, 185.47131, 13.106819, 39.183453
1987276036000, 184.52739, 13.306247, 40.076557
1987281149000, 183.6489, 13.434391, 41.06741
1987286080000, 182.8463, 13.562217, 42.11786
1987291240000, 182.15608, 13.626526, 43.226536
1987295981000, 181.57117, 13.709195, 44.43256
1987301014000, 181.1594, 13.7232275, 45.611515
1987306205000, 180.91037, 13.682838, 46.733765
1987311025000, 180.82582, 13.758123, 47.856586
1987316091000, 180.89792, 13.782847, 48.881184
1987321024000, 180.93532, 13.719246, 49.837963
1987326822000, 181.0989, 13.632478, 50.657692
1987331214000, 181.35791, 13.516797, 51.30021
1987336130000, 181.6897, 13.3913355, 51.807545
1987341066000, 182.0982, 13.249889, 52.137276
1987346090000, 182.54863, 13.113769, 52.32629
1987351040000, 182.98042, 12.99327, 52.44165
1987356300000, 183.45583, 12.915606, 52.312283
1987361028000, 183.92516, 12.838765, 52.12022
1987366060000, 184.22691, 12.999664, 51.70552
1987371012000, 184.52916, 13.150336, 51.218178
1987375999000, 184.78621, 13.238561, 50.531635
1987381281000, 184.99434, 13.3458395, 49.798954
1987386029000, 184.88599, 13.706663, 48.818672
1987391024000, 184.70386, 14.076849, 47.849308
1987396601000, 184.30475, 14.531156, 46.679306
1987401034000, 183.81584, 14.993997, 45.564075
1987406086000, 183.23976, 15.466367, 44.52685
1987411154000, 182.57758, 15.911316, 43.329845
1987416096000, 181.8611, 16.358236, 42.244076
1987421028000, 181.10776, 16.801481, 41.27656
1987426030000, 180.36546, 17.241718, 40.41526
1987431086000, 179.66663, 17.664124, 39.72716
1987436135000, 178.99687, 18.088428, 39.117928
1987441102000, 178.39502, 18.487577, 38.673233
1987446059000, 177.82173, 18.893476, 38.241695
1987450969000, 177.27655, 19.279915, 37.856346
1987456201000, 176.81133, 19.645102, 37.57922
1987461013000, 176.35852, 19.996683, 37.300724
1987466329000, 175.996, 20.291082, 37.17323
1987471072000, 175.6367, 20.57199, 37.023026
1987476024000, 175.33153, 20.82778, 36.990112
1987481197000, 175.0215, 21.074375, 36.90677
1987486037000, 174.78813, 21.25545, 36.985634
1987491082000, 174.57295, 21.411182, 37.05465
1987496001000, 174.43546, 21.501307, 37.32345
1987501026000, 174.34126, 21.547209, 37.65238
1987506207000, 174.22656, 21.608253, 37.994236
1987511106000, 174.15198, 21.628855, 38.42003
1987516103000, 174.15338, 21.57795, 38.97744
1987521073000, 174.172, 21.50751, 39.581226
1987526027000, 174.18257, 21.444595, 40.216335
1987531165000, 174.2221, 21.348555, 40.770023
1987536174000, 174.24121, 21.27123, 41.318405
1987541069000, 174.28703, 21.182665, 41.825317
1987546196000, 174.30989, 21.103907, 42.303745
1987550985000, 174.36746, 21.027023, 42.703808
1987556205000, 174.39992, 20.968988, 43.061226
1987561224000, 174.44037, 20.909891, 43.33921
1987566031000, 174.4896, 20.860554, 43.559185
1987571181000, 174.52776, 20.821266, 43.684334
1987576030000, 174.57335, 20.785595, 43.762947
1987583789000, 174.6004, 20.767572, 43.73094
1987586123000, 174.6247, 20.751188, 43.690865
1987591092000, 174.65158, 20.73705, 43.62787
1987596053000, 174.63028, 20.751516, 43.48348
1987601016000, 174.60738, 20.76693, 43.35523
1987606125000, 174.51022, 20.845531, 43.035427
1987611120000, 174.41054, 20.924274, 42.73581
1987616100000, 174.28291, 21.034336, 42.395496
1987621072000, 174.15149, 21.151514, 42.077934
1987626383000, 174.04039, 21.258509, 41.808372
1987631063000, 173.9312, 21.37842, 41.52997
1987636002000, 173.82889, 21.49868, 41.29677
1987641083000, 173.73534, 21.616196, 41.06852
1987646051000, 173.64392, 21.737974, 40.835964
1987651872000, 173.56642, 21.863787, 40.64806
1987656206000, 173.48537, 21.981226, 40.47173
1987661092000, 173.42159, 22.107038, 40.343002
1987666075000, 173.36063, 22.223171, 40.210762
1987670977000, 173.30035, 22.337671, 40.15102
1987676031000, 173.24263, 22.444036, 40.084267
1987681068000, 173.1944, 22.536703, 40.025566
1987686033000, 173.17404, 22.595335, 40.038155
1987695989000, 173.14673, 22.646643, 40.077953
1987701031000, 173.1473, 22.667315, 40.120235
1987706186000, 173.1517, 22.678242, 40.17004
1987711120000, 173.16142, 22.680513, 40.235172
1987716087000, 173.1676, 22.678389, 40.28628
1987721757000, 173.17441, 22.672495, 40.34441
1987726025000, 173.1833, 22.668306, 40.403877
1987731208000, 173.2039, 22.65634, 40.452953
1987736060000, 173.21764, 22.643208, 40.503555
1987741024000, 173.24376, 22.62974, 40.54097
1987746039000, 173.26678, 22.613195, 40.576485
1987751001000, 173.29082, 22.59539, 40.59454
1987756201000, 173.30965, 22.57836, 40.611423
1987761012000, 173.34532, 22.552206, 40.61016
1987766064000, 173.37703, 22.529194, 40.607765
1987771002000, 173.41808, 22.496868, 40.592842
1987776029000, 173.45801, 22.469881, 40.568565
1987781188000, 173.50029, 22.4348, 40.535557
1987786062000, 173.53093, 22.408182, 40.49969
1987791541000, 173.56888, 22.377636, 40.46105
1987796079000, 173.59456, 22.354492, 40.39328
1987801025000, 173.61551, 22.332405, 40.328465
1987806215000, 173.63554, 22.315804, 40.255756
1987811037000, 173.65137, 22.299307, 40.187412
1987816090000, 173.65508, 22.294487, 40.115482
1987821104000, 173.65863, 22.286987, 40.043858
1987825970000, 173.653, 22.295008, 39.964302
1987831233000, 173.64955, 22.296951, 39.887333
1987836070000, 173.64452, 22.301231, 39.80823
1987841028000, 173.63837, 22.310331, 39.72794
1987846047000, 173.63573, 22.31583, 39.650146
1987850973000, 173.6241, 22.329704, 39.57591
1987856214000, 173.61984, 22.341785, 39.499622
1987861237000, 173.61398, 22.353203, 39.423813
1987866084000, 173.60812, 22.362265, 39.35324
1987871067000, 173.60371, 22.372267, 39.275036
1987876022000, 173.60315, 22.376484, 39.206013
1987881077000, 173.60188, 22.376211, 39.136486
1987886072000, 173.60449, 22.371027, 39.079346
1987891118000, 173.61026, 22.36511, 39.025894
1987896077000, 173.6132, 22.356674, 38.97332
1987901024000, 173.6227, 22.34612, 38.92718
1987907005000, 173.63432, 22.33208, 38.887478
1987911108000, 173.64438, 22.313774, 38.8543
1987916007000, 173.65944, 22.29212, 38.82536
1987921061000, 173.6639, 22.274755, 38.784565
1987926021000, 173.67462, 22.252535, 38.74997
1987931219000, 173.69081, 22.224419, 38.730206
1987936124000, 173.71175, 22.195408, 38.712223
1987941274000, 173.73032, 22.170374, 38.691998
1987946045000, 173.74883, 22.148708, 38.67561
1987951036000, 173.76588, 22.125849, 38.661148
1987956205000, 173.77954, 22.109755, 38.639248
1987961106000, 173.79419, 22.095383, 38.62563
1987966233000, 173.80743, 22.076378, 38.604614
1987971067000, 173.81609, 22.061886, 38.592278
1987976727000, 173.82222, 22.049118, 38.581493
1987981363000, 173.8276, 22.035126, 38.56711
1987986035000, 173.82582, 22.031012, 38.543842
1987991089000, 173.82086, 22.025257, 38.517548
1987996759000, 173.81544, 22.02157, 38.49
1988003287000, 173.80696, 22.029507, 38.46181
1988006155000, 173.79773, 22.035448, 38.42786
1988011088000, 173.78914, 22.043123, 38.39288
1988016069000, 173.78278, 22.04881, 38.3536
1988021024000, 173.7684, 22.058098, 38.32
1988026087000, 173.75322, 22.067516, 38.275192
1988031211000, 173.73402, 22.074923, 38.23517
1988036034000, 173.71544, 22.084396, 38.192936
1988041044000, 173.69936, 22.090425, 38.150368
1988046875000, 173.68314, 22.09189, 38.11329
1988051001000, 173.66855, 22.093645, 38.076107
1988056172000, 173.65213, 22.098274, 38.041084
1988061056000, 173.63182, 22.098766, 38.009445
1988065995000, 173.61859, 22.101133, 37.981037
1988071008000, 173.60509, 22.09678, 37.954556
1988075978000, 173.58936, 22.096037, 37.930634
1988081101000, 173.57808, 22.095514, 37.907043
1988086006000, 173.56819, 22.09556, 37.88324
1988091052000, 173.5541, 22.094746, 37.870045
1988095987000, 173.54362, 22.095251, 37.85929
1988100998000, 173.53357, 22.094467, 37.850864
1988106134000, 173.52786, 22.09113, 37.84327
1988111050000, 173.5305, 22.08895, 37.845345
1988115992000, 173.53413, 22.079144, 37.848927
1988121017000, 173.53622, 22.07216, 37.847687
1988126010000, 173.53825, 22.065788, 37.85103
1988131140000, 173.54382, 22.05047, 37.857365
1988136127000, 173.54944, 22.035412, 37.862183
1988141069000, 173.5595, 22.019314, 37.868793
1988146011000, 173.56822, 22.0011, 37.87259
1988150971000, 173.58118, 21.982296, 37.88157
1988156225000, 173.59488, 21.96131, 37.887466
1988162810000, 173.60356, 21.945322, 37.89762
1988167240000, 173.61948, 21.921934, 37.903496
1988171011000, 173.62833, 21.903296, 37.912228
1988175968000, 173.64833, 21.873745, 37.92312
1988181254000, 173.66469, 21.848278, 37.926357
1988186071000, 173.68445, 21.819302, 37.9371
1988191079000, 173.70389, 21.789385, 37.95098
1988196062000, 173.71933, 21.76486, 37.963936
1988200999000, 173.73895, 21.732428, 37.98069
1988206175000, 173.75229, 21.710207, 37.997585
1988211054000, 173.76703, 21.686087, 38.010555
1988216063000, 173.78058, 21.663214, 38.025253
1988221400000, 173.79683, 21.636547, 38.043716
1988226000000, 173.80507, 21.613594, 38.06747
1988231969000, 173.81702, 21.589947, 38.08915
1988236108000, 173.82343, 21.567955, 38.11315
1988241090000, 173.83351, 21.545774, 38.136433
1988246027000, 173.8421, 21.525486, 38.158
1988251036000, 173.85408, 21.504942, 38.180347
1988256193000, 173.85594, 21.488579, 38.205597
1988261104000, 173.85797, 21.47405, 38.226944
1988266076000, 173.85928, 21.461325, 38.249912
1988271076000, 173.85616, 21.448711, 38.273903
1988275966000, 173.85931, 21.43296, 38.300716
1988282039000, 173.85846, 21.421455, 38.321316
1988286050000, 173.86432, 21.407177, 38.34399
1988291026000, 173.86536, 21.39007, 38.362213
1988296046000, 173.86685, 21.37466, 38.37874
1988301714000, 173.87273, 21.359747, 38.397312
1988306321000, 173.87823, 21.347145, 38.411316
1988311047000, 173.88501, 21.331799, 38.435616
1988316060000, 173.894, 21.315357, 38.455585
1988321006000, 173.90425, 21.29983, 38.472927
1988326011000, 173.9172, 21.278694, 38.491596
1988331176000, 173.92569, 21.256392, 38.510193
1988336095000, 173.93994, 21.235437, 38.530117
1988341041000, 173.95273, 21.211575, 38.552513
1988346009000, 173.96584, 21.189186, 38.574467
1988350972000, 173.97691, 21.160458, 38.598717
1988356305000, 173.99258, 21.134615, 38.620644
1988361113000, 174.00652, 21.103294, 38.641457
1988366033000, 174.02182, 21.072697, 38.670876
1988371836000, 174.03548, 21.040741, 38.69829
1988376004000, 174.045, 21.009783, 38.72806
1988381208000, 174.05353, 20.981516, 38.754513
1988386151000, 174.06752, 20.947124, 38.790897
1988391061000, 174.07852, 20.912416, 38.825638
1988395981000, 174.08836, 20.884825, 38.8571
1988401067000, 174.09947, 20.856195, 38.890648
1988406431000, 174.10884, 20.828926, 38.922844
1988411035000, 174.1197, 20.799288, 38.95593
1988421077000, 174.13322, 20.771053, 38.98862
1988426070000, 174.13406, 20.749422, 39.020817
1988431291000, 174.13669, 20.727371, 39.050056
1988436148000, 174.14084, 20.708174, 39.07756
1988441625000, 174.14774, 20.683002, 39.10503
1988446035000, 174.15582, 20.656754, 39.135296
1988451066000, 174.16475, 20.631317, 39.160583
1988456233000, 174.17159, 20.609497, 39.183792
1988461059000, 174.18054, 20.589561, 39.210274
1988466098000, 174.18478, 20.574593, 39.231453
1988476068000, 174.18996, 20.558681, 39.248287
1988486113000, 174.19452, 20.54101, 39.269436
1988491016000, 174.20177, 20.526659, 39.285114
1988496070000, 174.21481, 20.504229, 39.309155
1988501002000, 174.22345, 20.486221, 39.32215
1988506242000, 174.22772, 20.474575, 39.340828
1988511594000, 174.23929, 20.455717, 39.35653
1988516026000, 174.24431, 20.439716, 39.37264
1988520980000, 174.24727, 20.422478, 39.390903
1988526005000, 174.2546, 20.408678, 39.40719
1988531347000, 174.26286, 20.389387, 39.42402
1988536094000, 174.26701, 20.371298, 39.44137
1988541108000, 174.27472, 20.355331, 39.45433
1988545972000, 174.28665, 20.337376, 39.47471
1988551068000, 174.29306, 20.324932, 39.487656
1988557168000, 174.30383, 20.309425, 39.504753
1988561450000, 174.3077, 20.293947, 39.522377
1988566110000, 174.31302, 20.281172, 39.530888
1988570986000, 174.31943, 20.261461, 39.54884
1988576045000, 174.32408, 20.245605, 39.564945
1988581262000, 174.33025, 20.226248, 39.58206
1988586111000, 174.33643, 20.212227, 39.59963
1988591154000, 174.34636, 20.194239, 39.615273
1988596033000, 174.35402, 20.174438, 39.631954
1988601035000, 174.36497, 20.155258, 39.641663
1988606241000, 174.37016, 20.134762, 39.660217
1988611115000, 174.37714, 20.117613, 39.67387
1988615988000, 174.38052, 20.09927, 39.68407
1988621076000, 174.38898, 20.081213, 39.69302
1988626790000, 174.38654, 20.071712, 39.698643
1988631842000, 174.38905, 20.058897, 39.700954
1988636043000, 174.39285, 20.04222, 39.702736
1988641095000, 174.39647, 20.02764, 39.696983
1988646037000, 174.40073, 20.013792, 39.698513
1988650971000, 174.40878, 19.993149, 39.697086
1988656245000, 174.41528, 19.979765, 39.69719
1988661399000, 174.42433, 19.961851, 39.697617
1988666085000, 174.43399, 19.948614, 39.694294
1988671045000, 174.44043, 19.934965, 39.701504
1988676041000, 174.45093, 19.918646, 39.702885
1988682339000, 174.45609, 19.907454, 39.70681
1988686011000, 174.46046, 19.89405, 39.689205
1988691039000, 174.45753, 19.887209, 39.668137
1988696011000, 174.46036, 19.875109, 39.65081
1988700979000, 174.46117, 19.866062, 39.643272
1988706287000, 174.46298, 19.860657, 39.632244
1988711012000, 174.46458, 19.85046, 39.627926
1988716006000, 174.46854, 19.841436, 39.622265
1988721074000, 174.47069, 19.83562, 39.61309
1988726083000, 174.47263, 19.823917, 39.610683
1988731201000, 174.47192, 19.816225, 39.609974
1988736021000, 174.46568, 19.809582, 39.606255
1988741072000, 174.46136, 19.803349, 39.602848
1988745989000, 174.46103, 19.797338, 39.603497
1988751084000, 174.45589, 19.790897, 39.60482
1988755942000, 174.45143, 19.78944, 39.599644
1988760928000, 174.44717, 19.785366, 39.597923
1988765963000, 174.45486, 19.769014, 39.599022
1988770905000, 174.46194, 19.754404, 39.59623
1988775892000, 174.46999, 19.740784, 39.597393
1988780970000, 174.4693, 19.743132, 39.589493
1988785932000, 174.47194, 19.7454, 39.58341
1988790903000, 174.4708, 19.748966, 39.57742
1988795881000, 174.4774, 19.748575, 39.570538
1988800956000, 174.47488, 19.753796, 39.562447
1988806099000, 174.47386, 19.758764, 39.558403
1988811067000, 174.47005, 19.765753, 39.544163
1988815988000, 174.47018, 19.767897, 39.534203
1988820946000, 174.46223, 19.77331, 39.520664
1988825938000, 174.45209, 19.780346, 39.51103
1988831099000, 174.44958, 19.7833, 39.5002
1988836254000, 174.44595, 19.785646, 39.49457
1988840979000, 174.43704, 19.79085, 39.489597
1988845982000, 174.4357, 19.791323, 39.493767
1988851118000, 174.42497, 19.795773, 39.488144
1988856196000, 174.41911, 19.794682, 39.48751
1988861084000, 174.40892, 19.799625, 39.4796
1988866042000, 174.39777, 19.80319, 39.4726
1988871068000, 174.38538, 19.809795, 39.46581
1988876072000, 174.36957, 19.823917, 39.45965
1988886128000, 174.35382, 19.838196, 39.452263
1988891096000, 174.34895, 19.84229, 39.45342
1988895970000, 174.3585, 19.833399, 39.44956
1988901041000, 174.36166, 19.83003, 39.451603
1988906197000, 174.36801, 19.821533, 39.446377
1988911073000, 174.37367, 19.819304, 39.4475
1988916212000, 174.3796, 19.812407, 39.444492
1988921024000, 174.38605, 19.80746, 39.445972
1988926011000, 174.39494, 19.800138, 39.445602
1988931200000, 174.40057, 19.795515, 39.44478
1988936224000, 174.40744, 19.79049, 39.442543
1988941062000, 174.41826, 19.784052, 39.445133
1988946035000, 174.42781, 19.77887, 39.44478
1988951879000, 174.43866, 19.77125, 39.446125
1988956184000, 174.45044, 19.756844, 39.44209
1988961298000, 174.46475, 19.742947, 39.442257
1988966029000, 174.47925, 19.722435, 39.44048
1988971043000, 174.49615, 19.706038, 39.441692
1988976002000, 174.513, 19.684017, 39.439423
1988981206000, 174.53032, 19.665749, 39.43642
1988986269000, 174.54512, 19.64807, 39.434063
1988991095000, 174.55899, 19.629148, 39.430878
1988996043000, 174.57533, 19.614332, 39.428543
1989001016000, 174.5948, 19.590479, 39.426273
1989006211000, 174.61644, 19.568514, 39.43304
1989011260000, 174.64026, 19.542606, 39.432796
1989016089000, 174.66678, 19.519629, 39.43543
1989021890000, 174.68062, 19.50121, 39.43004
1989026007000, 174.6982, 19.48065, 39.4264
1989031242000, 174.71185, 19.464134, 39.417675
1989036088000, 174.73116, 19.445393, 39.42283
1989041062000, 174.74542, 19.426792, 39.423325
1989045983000, 174.76884, 19.410297, 39.42417
1989051024000, 174.78268, 19.397247, 39.420944
1989056291000, 174.80026, 19.38041, 39.423904
1989061098000, 174.81879, 19.368237, 39.425514
1989066087000, 174.83574, 19.356508, 39.42961
1989070980000, 174.85234, 19.345606, 39.430916
1989076019000, 174.86642, 19.336355, 39.43529
1989086045000, 174.88713, 19.321781, 39.439095
1989091742000, 174.89987, 19.316942, 39.44231
1989095983000, 174.9142, 19.305408, 39.440712
1989101028000, 174.92892, 19.293722, 39.44453
1989106262000, 174.93651, 19.289469, 39.437904
1989111349000, 174.95045, 19.278828, 39.435574
1989116097000, 174.9668, 19.271063, 39.433548
1989121079000, 174.9888, 19.258606, 39.43449
1989126004000, 175.00388, 19.25143, 39.43311
1989132461000, 175.02292, 19.239376, 39.434044
1989136506000, 175.03998, 19.229204, 39.436268
1989141041000, 175.05243, 19.219099, 39.438854
1989146021000, 175.06963, 19.207394, 39.442528
1989151038000, 175.08287, 19.198675, 39.443737
1989157834000, 175.096, 19.188932, 39.450306
1989161600000, 175.11009, 19.182718, 39.450306
1989166067000, 175.12057, 19.170706, 39.45837
1989171037000, 175.13531, 19.160398, 39.45836
1989176021000, 175.1448, 19.151308, 39.46357
1989181137000, 175.15848, 19.137283, 39.467144
1989186085000, 175.17201, 19.131992, 39.47787
1989191047000, 175.18925, 19.118708, 39.491943
1989196075000, 175.19868, 19.112946, 39.503693
1989201038000, 175.2176, 19.101252, 39.51524
1989206019000, 175.22491, 19.09733, 39.517338
1989210963000, 175.23436, 19.088467, 39.52214
1989215901000, 175.24228, 19.084692, 39.5258
1989220928000, 175.26196, 19.070053, 39.53191
1989225895000, 175.27963, 19.057617, 39.538136
1989231067000, 175.28625, 19.04978, 39.54681
1989235929000, 175.29283, 19.040146, 39.55551
1989240902000, 175.29631, 19.029324, 39.556805
1989245883000, 175.30246, 19.022911, 39.561012
1989250911000, 175.2987, 19.015638, 39.56682
1989256081000, 175.29634, 19.00856, 39.573017
1989261179000, 175.29375, 18.998857, 39.576385
1989266130000, 175.29857, 18.983635, 39.584686
1989270983000, 175.30124, 18.973003, 39.588577
1989275980000, 175.30264, 18.96517, 39.59304
1989281090000, 175.30647, 18.953176, 39.593636
1989286137000, 175.30536, 18.947618, 39.5933
1989290947000, 175.30989, 18.931583, 39.593544
1989295944000, 175.30684, 18.922531, 39.593773
1989301145000, 175.3045, 18.910032, 39.600533
1989306226000, 175.29684, 18.90614, 39.607216
1989311079000, 175.28902, 18.898327, 39.608585
1989316028000, 175.28323, 18.895325, 39.61028
1989321004000, 175.27798, 18.888412, 39.61397
1989325999000, 175.27136, 18.883684, 39.617737
1989331143000, 175.26413, 18.87737, 39.620358
1989336058000, 175.25688, 18.87309, 39.619335
1989340990000, 175.25581, 18.860966, 39.62439
1989346001000, 175.25499, 18.85166, 39.626034
1989351002000, 175.25438, 18.842316, 39.624516
1989356229000, 175.2529, 18.832497, 39.626663
1989361068000, 175.2504, 18.822668, 39.63226
1989366007000, 175.2483, 18.814583, 39.62709
1989371005000, 175.24368, 18.80698, 39.6306
1989375976000, 175.24373, 18.798662, 39.62957
1989381277000, 175.24216, 18.791233, 39.629993
1989386334000, 175.24501, 18.780575, 39.630703
1989391036000, 175.24728, 18.775879, 39.629944
1989395970000, 175.25586, 18.766739, 39.623962
1989401068000, 175.2656, 18.755825, 39.623184
1989406330000, 175.27603, 18.749058, 39.6163
1989411065000, 175.28658, 18.741976, 39.610733
1989416092000, 175.29727, 18.736929, 39.605164
1989421021000, 175.32089, 18.72373, 39.604828
1989426063000, 175.34062, 18.71242, 39.602684
1989431326000, 175.36336, 18.699343, 39.602013
1989436068000, 175.37405, 18.694744, 39.5997
1989441099000, 175.39313, 18.68712, 39.60061
1989446016000, 175.39984, 18.678394, 39.595947
1989451066000, 175.40988, 18.673122, 39.5918
1989456363000, 175.41943, 18.665262, 39.58934
1989461106000, 175.43948, 18.650742, 39.591187
1989466095000, 175.45825, 18.638124, 39.59227
1989470976000, 175.47868, 18.623137, 39.590046
1989476070000, 175.49774, 18.608702, 39.590714
1989481345000, 175.51364, 18.59725, 39.58751
1989486326000, 175.53262, 18.58153, 39.59091
1989491092000, 175.55353, 18.567017, 39.593513
1989495977000, 175.56433, 18.55811, 39.592102
1989501066000, 175.58517, 18.54127, 39.584957
1989506353000, 175.59962, 18.532692, 39.582848
1989511318000, 175.62079, 18.517351, 39.578716
1989516090000, 175.64136, 18.50418, 39.574112
1989520976000, 175.66644, 18.487755, 39.567425
1989526067000, 175.69301, 18.471264, 39.563133
1989531358000, 175.71582, 18.457846, 39.557323
1989536250000, 175.73325, 18.449755, 39.5516
1989541093000, 175.74915, 18.443636, 39.545815
1989545965000, 175.76859, 18.43868, 39.53774
1989551081000, 175.78323, 18.434013, 39.530983
1989556342000, 175.80362, 18.427376, 39.523327
1989561319000, 175.81541, 18.427912, 39.513916
1989566088000, 175.82973, 18.425356, 39.506065
1989570983000, 175.84221, 18.427162, 39.496544
1989576067000, 175.85608, 18.42682, 39.491634
1989581362000, 175.8686, 18.431103, 39.483227
1989586185000, 175.88194, 18.426916, 39.471546
1989591089000, 175.89648, 18.428844, 39.462475
1989595981000, 175.91562, 18.4189, 39.45267
1989601066000, 175.93825, 18.413027, 39.443306
1989606250000, 175.95615, 18.405678, 39.43632
1989611050000, 175.97818, 18.399456, 39.429794
1989616033000, 176.0001, 18.39624, 39.423088
1989620994000, 176.0179, 18.395435, 39.422684
1989626007000, 176.03674, 18.39332, 39.413006
1989631337000, 176.04756, 18.388441, 39.4135
1989636079000, 176.05908, 18.385181, 39.407833
1989640995000, 176.07454, 18.382698, 39.404755
1989646009000, 176.09192, 18.377708, 39.404217
1989651022000, 176.10847, 18.377014, 39.400097
1989656336000, 176.12479, 18.368807, 39.3965
1989661085000, 176.1425, 18.365448, 39.3943
1989666028000, 176.1581, 18.360762, 39.395157
1989671004000, 176.17422, 18.35493, 39.39703
1989676027000, 176.19951, 18.346697, 39.401592
1989681348000, 176.22191, 18.338863, 39.4115
1989686141000, 176.24553, 18.331785, 39.412918
1989691094000, 176.27217, 18.32342, 39.41881
1989695971000, 176.29062, 18.318857, 39.423435
1989701068000, 176.30374, 18.314915, 39.42398
1989706248000, 176.3262, 18.305319, 39.42683
1989711048000, 176.33885, 18.305843, 39.439655
1989716035000, 176.35634, 18.301004, 39.448456
1989720988000, 176.37195, 18.292519, 39.45566
1989726005000, 176.38484, 18.284481, 39.46183
1989731205000, 176.4005, 18.277128, 39.456436
1989736064000, 176.41145, 18.2689, 39.45872
1989741009000, 176.42513, 18.261705, 39.4576
1989746004000, 176.43616, 18.255459, 39.456364
1989751029000, 176.4491, 18.250471, 39.45651
1989756208000, 176.45839, 18.248392, 39.45661
1989761057000, 176.46912, 18.243267, 39.4569
1989766040000, 176.47504, 18.240553, 39.455055
1989771004000, 176.48302, 18.241003, 39.44702
1989775992000, 176.48456, 18.234636, 39.445198
1989781218000, 176.48698, 18.236134, 39.440712
1989786013000, 176.48123, 18.234936, 39.442467
1989791020000, 176.47672, 18.235304, 39.43816
1989796052000, 176.46869, 18.234379, 39.43995
1989801058000, 176.46307, 18.232714, 39.436718
1989807309000, 176.4587, 18.229656, 39.436474
1989811153000, 176.45699, 18.22546, 39.432007
1989816090000, 176.45169, 18.224731, 39.427177
1989821056000, 176.44926, 18.22009, 39.426544
1989826070000, 176.44402, 18.221125, 39.419983
1989831374000, 176.4376, 18.215208, 39.422478
1989836372000, 176.4305, 18.21169, 39.42162
1989841025000, 176.42581, 18.207125, 39.420723
1989846070000, 176.42259, 18.201902, 39.416195
1989851006000, 176.41974, 18.193388, 39.421318
1989856396000, 176.41397, 18.189053, 39.416172
1989861144000, 176.4117, 18.180933, 39.42056
1989866089000, 176.40982, 18.169275, 39.424755
1989870979000, 176.40434, 18.162231, 39.428986
1989876068000, 176.40097, 18.151585, 39.43096
1989881268000, 176.39412, 18.144352, 39.43765
1989886058000, 176.39732, 18.12501, 39.44847
1989895985000, 176.3975, 18.113592, 39.45883
1989901005000, 176.39668, 18.095299, 39.46498
1989906237000, 176.40063, 18.079117, 39.470055
1989911058000, 176.40176, 18.064812, 39.473145
1989915992000, 176.39769, 18.05368, 39.475697
1989921006000, 176.39276, 18.04571, 39.47904
1989931350000, 176.39084, 18.033983, 39.480034
1989936052000, 176.38258, 18.026735, 39.481415
1989941023000, 176.37938, 18.012358, 39.485317
1989946001000, 176.37805, 18.000565, 39.487366
1989951000000, 176.38106, 17.988083, 39.489174
1989956353000, 176.37762, 17.976744, 39.490288
1989961057000, 176.38295, 17.965088, 39.48774
1989966023000, 176.38081, 17.955593, 39.49143
1989970977000, 176.38425, 17.944014, 39.48922
1989976002000, 176.38618, 17.934101, 39.488323
1989981401000, 176.38588, 17.923819, 39.48629
1989986086000, 176.39606, 17.910063, 39.482407
1989991095000, 176.40488, 17.898325, 39.482056
1989995979000, 176.41171, 17.888355, 39.48286
1990001068000, 176.41762, 17.878069, 39.485893
1990006396000, 176.42955, 17.866495, 39.489586
1990011077000, 176.43562, 17.861448, 39.489605
1990016091000, 176.4423, 17.85498, 39.486664
1990021127000, 176.45064, 17.84764, 39.48655
1990026070000, 176.46016, 17.837872, 39.48591
1990031362000, 176.46654, 17.834219, 39.482594
1990036036000, 176.47325, 17.827375, 39.486797
1990041092000, 176.48627, 17.822208, 39.49031
1990045996000, 176.47899, 17.824062, 39.49058
1990051044000, 176.47968, 17.820415, 39.492287
1990056345000, 176.48015, 17.822271, 39.49302
1990061064000, 176.47942, 17.822718, 39.493134
1990066053000, 176.47836, 17.821512, 39.488476
1990071009000, 176.47646, 17.826046, 39.484398
1990076007000, 176.47476, 17.825872, 39.479546
1990081366000, 176.47235, 17.827787, 39.479137
1990086110000, 176.465, 17.834352, 39.475536
1990091044000, 176.46153, 17.833117, 39.477055
1990096074000, 176.45552, 17.84009, 39.47275
1990101023000, 176.44612, 17.841074, 39.474483
1990106243000, 176.44217, 17.843275, 39.47078
1990111017000, 176.44527, 17.839907, 39.46608
1990116039000, 176.44824, 17.83626, 39.466694
1990120975000, 176.45274, 17.833906, 39.462646
1990126007000, 176.45468, 17.832516, 39.461117
1990131097000, 176.45645, 17.827929, 39.454453
1990136049000, 176.45502, 17.826183, 39.44981
1990141005000, 176.45447, 17.824339, 39.448776
1990146074000, 176.45078, 17.820982, 39.447044
1990151036000, 176.44766, 17.820301, 39.44633
1990156214000, 176.45053, 17.816126, 39.450726
1990161046000, 176.44846, 17.815023, 39.45651
1990166099000, 176.44385, 17.814436, 39.454987
1990171079000, 176.43755, 17.811567, 39.455296
1990176066000, 176.4309, 17.813845, 39.45194
1990181237000, 176.42075, 17.811798, 39.449078
1990186042000, 176.41711, 17.810133, 39.444622
1990191124000, 176.41591, 17.80637, 39.441868
1990195977000, 176.421, 17.7971, 39.438248
1990201023000, 176.42577, 17.789207, 39.43492
1990206079000, 176.43451, 17.777134, 39.433384
1990211116000, 176.43839, 17.769873, 39.43316
1990216022000, 176.45227, 17.757517, 39.430767
1990221032000, 176.46349, 17.746876, 39.427986
1990228517000, 176.47166, 17.742151, 39.42929
1990231117000, 176.48366, 17.734074, 39.426212
1990236028000, 176.48608, 17.731524, 39.424065
1990241064000, 176.5031, 17.720875, 39.42665
1990246001000, 176.50766, 17.721296, 39.421875
1990251005000, 176.52089, 17.71158, 39.424114
1990256267000, 176.52563, 17.711004, 39.417835
1990261061000, 176.53023, 17.706514, 39.41668
1990266043000, 176.53535, 17.705431, 39.408154
1990271011000, 176.53748, 17.706278, 39.40456
1990276007000, 176.5385, 17.70544, 39.393208
1990281428000, 176.5376, 17.703974, 39.38784
1990286046000, 176.53456, 17.703695, 39.380318
1990291069000, 176.5325, 17.697855, 39.37947
1990296007000, 176.52992, 17.694199, 39.37443
1990301028000, 176.52666, 17.68987, 39.37118
1990306153000, 176.5235, 17.682774, 39.3763
1990311014000, 176.52873, 17.671953, 39.375443
1990316009000, 176.52539, 17.666836, 39.375866
1990321070000, 176.52966, 17.653173, 39.376286
1990326029000, 176.53036, 17.646797, 39.374725
1990331226000, 176.52899, 17.642149, 39.373005
1990336038000, 176.52791, 17.63586, 39.370037
1990341037000, 176.52794, 17.632734, 39.367264
1990346023000, 176.52498, 17.629313, 39.36362
1990351113000, 176.52693, 17.623838, 39.358936
1990356007000, 176.52019, 17.624308, 39.35287
1990360999000, 176.5247, 17.616093, 39.352646
1990365994000, 176.52438, 17.612167, 39.35025
1990370931000, 176.52692, 17.606743, 39.349792
1990375929000, 176.53171, 17.60005, 39.348763
1990381127000, 176.53806, 17.59276, 39.34723
1990386057000, 176.54437, 17.585205, 39.350815
1990390929000, 176.54884, 17.57513, 39.353016
1990395928000, 176.55377, 17.565304, 39.35905
1990400911000, 176.56215, 17.55214, 39.360962
1990406193000, 176.57324, 17.535757, 39.369198
1990411006000, 176.57254, 17.524195, 39.375797
1990415955000, 176.57605, 17.508188, 39.387497
1990420946000, 176.58441, 17.49328, 39.394882
1990425940000, 176.59203, 17.481, 39.400764
1990431134000, 176.59666, 17.466858, 39.40993
1990436015000, 176.59941, 17.455555, 39.416183
1990440956000, 176.59734, 17.446873, 39.418404
1990445948000, 176.59328, 17.43665, 39.427067
1990451014000, 176.58319, 17.433504, 39.425762
1990456305000, 176.57509, 17.431807, 39.433483
1990461003000, 176.56764, 17.43434, 39.43318
1990465991000, 176.55954, 17.436619, 39.434155
1990470972000, 176.55865, 17.434774, 39.436165
1990475968000, 176.55753, 17.434633, 39.437576
1990481301000, 176.54813, 17.442875, 39.437973
1990486002000, 176.54198, 17.448175, 39.438942
1990491020000, 176.53293, 17.451906, 39.437576
1990496016000, 176.52803, 17.451735, 39.43187
1990501121000, 176.52046, 17.452057, 39.439754
1990506438000, 176.51563, 17.448648, 39.44221
1990511041000, 176.51576, 17.441923, 39.44134
1990516127000, 176.51001, 17.44172, 39.43979
1990520976000, 176.50653, 17.434914, 39.442795
1990526071000, 176.5052, 17.43462, 39.444595
1990531160000, 176.49095, 17.435112, 39.448345
1990536033000, 176.48239, 17.43569, 39.45382
1990540998000, 176.47115, 17.43433, 39.462254
1990546011000, 176.46274, 17.431751, 39.46891
1990551027000, 176.45146, 17.433533, 39.47671
1990556291000, 176.44649, 17.428774, 39.483498
1990561039000, 176.44101, 17.424938, 39.490147
1990566044000, 176.4347, 17.42317, 39.490932
1990571050000, 176.42906, 17.420843, 39.497578
1990576006000, 176.42021, 17.427336, 39.49957
1990581160000, 176.40694, 17.423653, 39.504093
1990586076000, 176.39574, 17.423742, 39.50865
1990591040000, 176.38605, 17.423817, 39.50992
1990596012000, 176.37932, 17.418215, 39.51557
1990601003000, 176.37119, 17.418175, 39.519028
1990606401000, 176.3667, 17.413948, 39.51849
1990611093000, 176.3545, 17.41887, 39.521152
1990616059000, 176.35204, 17.414919, 39.51614
1990621086000, 176.34756, 17.415255, 39.513752
1990626026000, 176.34058, 17.40999, 39.509262
1990631437000, 176.33205, 17.407738, 39.50141
1990636064000, 176.3212, 17.406017, 39.49207
1990641090000, 176.30847, 17.405176, 39.48308
1990645978000, 176.30559, 17.400654, 39.47922
1990651037000, 176.29918, 17.399914, 39.47168
1990656207000, 176.29501, 17.396978, 39.468544
1990661060000, 176.29591, 17.396997, 39.46622
1990670969000, 176.29839, 17.394865, 39.465614
1990676071000, 176.31178, 17.385708, 39.46621
1990681217000, 176.32327, 17.379885, 39.467773
1990686008000, 176.3311, 17.36958, 39.470486
1990691092000, 176.34373, 17.358833, 39.469143
1990696015000, 176.35516, 17.346607, 39.469296
1990701069000, 176.36409, 17.338512, 39.46781
1990707346000, 176.37834, 17.325893, 39.467346
1990711128000, 176.38676, 17.319199, 39.46511
1990716089000, 176.40237, 17.308386, 39.46891
1990721065000, 176.40866, 17.305069, 39.46609
1990726068000, 176.42163, 17.293196, 39.46909
1990731220000, 176.42996, 17.29274, 39.474995
1990736141000, 176.43365, 17.293144, 39.4768
1990741025000, 176.43768, 17.289385, 39.48589
1990746064000, 176.44136, 17.288067, 39.48921
1990750977000, 176.43939, 17.287106, 39.492973
1990756429000, 176.44398, 17.281809, 39.49272
1990761065000, 176.44092, 17.282486, 39.497562
1990766083000, 176.44034, 17.279625, 39.49683
1990770978000, 176.44069, 17.280272, 39.502407
1990776068000, 176.43423, 17.285791, 39.504936
1990781341000, 176.43803, 17.284319, 39.512695
1990786025000, 176.43619, 17.292864, 39.50898
1990791039000, 176.44464, 17.290604, 39.51154
1990795992000, 176.44704, 17.295597, 39.511974
1990801002000, 176.45308, 17.298717, 39.515617
1990806225000, 176.45557, 17.302269, 39.510742
1990811129000, 176.45741, 17.302523, 39.5125
1990816089000, 176.46701, 17.30717, 39.515125
1990821071000, 176.4685, 17.314583, 39.51718
1990826073000, 176.48102, 17.31354, 39.52144
1990831475000, 176.48074, 17.320683, 39.525925
1990836141000, 176.48697, 17.322037, 39.5324
1990841076000, 176.48962, 17.323822, 39.537933
1990846071000, 176.49268, 17.324095, 39.54253
1990851013000, 176.49193, 17.327322, 39.54739
1990856454000, 176.49263, 17.328611, 39.55363
1990861054000, 176.49487, 17.331059, 39.558098
1990866084000, 176.49583, 17.333454, 39.56209
1990870975000, 176.49, 17.336836, 39.568123
1990876069000, 176.48546, 17.342646, 39.568172
1990881517000, 176.48254, 17.342999, 39.574253
1990886057000, 176.48439, 17.344053, 39.575375
1990891088000, 176.48451, 17.345175, 39.579453
1990895979000, 176.48398, 17.342833, 39.584568
1990901069000, 176.48027, 17.34099, 39.59372
1990906511000, 176.48358, 17.335232, 39.599068
1990911048000, 176.4862, 17.331106, 39.603245
1990916089000, 176.49254, 17.322369, 39.608196
1990921024000, 176.50708, 17.310581, 39.610546
1990926065000, 176.51826, 17.301962, 39.614357
1990931514000, 176.52881, 17.291698, 39.618355
1990936065000, 176.54251, 17.28443, 39.619434
1990941090000, 176.55624, 17.276724, 39.620068
1990945978000, 176.57695, 17.268782, 39.617496
1990951037000, 176.59554, 17.258583, 39.61917
1990956345000, 176.61581, 17.248156, 39.616074
1990961020000, 176.63635, 17.24355, 39.614025
1990966031000, 176.65938, 17.232132, 39.610054
1990971029000, 176.67798, 17.217855, 39.603134
1990976009000, 176.69295, 17.211063, 39.59483
1990982355000, 176.70853, 17.198597, 39.586773
1990986057000, 176.71973, 17.194756, 39.5797
1990996052000, 176.74161, 17.182827, 39.570847
1991001077000, 176.76079, 17.171595, 39.56384
1991006473000, 176.77069, 17.16291, 39.556557
1991011143000, 176.78038, 17.153177, 39.5452
1991016012000, 176.79987, 17.142414, 39.54156
1991021065000, 176.81943, 17.131191, 39.529495
1991026012000, 176.8332, 17.120857, 39.528576
1991031503000, 176.8459, 17.111467, 39.520344
1991036061000, 176.8698, 17.097464, 39.51328
1991041083000, 176.8804, 17.091848, 39.50492
1991045980000, 176.90152, 17.07223, 39.50101
1991051035000, 176.91887, 17.059572, 39.492645
1991056500000, 176.93456, 17.044836, 39.4922
1991061045000, 176.95792, 17.026543, 39.486805
1991066084000, 176.9809, 17.00691, 39.485043
1991071030000, 177.00616, 16.984549, 39.485443
1991076069000, 177.02502, 16.965809, 39.486702
1991081528000, 177.05128, 16.940563, 39.48719
1991086068000, 177.0699, 16.92355, 39.487595
1991091086000, 177.08824, 16.904547, 39.487465
1991095977000, 177.1099, 16.888884, 39.48974
1991101068000, 177.12888, 16.873007, 39.488518
1991106544000, 177.14926, 16.856503, 39.491028
1991111078000, 177.17085, 16.839409, 39.485172
1991116126000, 177.18477, 16.828747, 39.481316
1991120980000, 177.20494, 16.809082, 39.479397
1991126067000, 177.22266, 16.793646, 39.4735
1991131374000, 177.23932, 16.777887, 39.47265
1991136015000, 177.24599, 16.76757, 39.468075
1991141037000, 177.25415, 16.755547, 39.465473
1991146050000, 177.2637, 16.744028, 39.464603
1991151010000, 177.27002, 16.734333, 39.464027
1991156161000, 177.27539, 16.730194, 39.461166
1991161048000, 177.27672, 16.728724, 39.458687
1991166126000, 177.2795, 16.726292, 39.460217
1991171073000, 177.28233, 16.724873, 39.456833
1991176028000, 177.28159, 16.724112, 39.454857
1991181143000, 177.28467, 16.718832, 39.458614
1991186062000, 177.28665, 16.717056, 39.460987
1991190988000, 177.29095, 16.718405, 39.463093
1991196007000, 177.29543, 16.71764, 39.4657
1991200970000, 177.29799, 16.716763, 39.462925
1991206115000, 177.30296, 16.714052, 39.461536
1991211012000, 177.30817, 16.713861, 39.464905
1991220981000, 177.31516, 16.713264, 39.46785
1991226005000, 177.31923, 16.706503, 39.47384
1991231116000, 177.32483, 16.706932, 39.481636
1991236071000, 177.32605, 16.6998, 39.48661
1991241026000, 177.32953, 16.70359, 39.49609
1991246005000, 177.33212, 16.699144, 39.504623
1991251009000, 177.33846, 16.701187, 39.512043
1991261052000, 177.32938, 16.703794, 39.51942
1991270997000, 177.32863, 16.70634, 39.521034
1991275971000, 177.32997, 16.702286, 39.526417
1991281244000, 177.32048, 16.704563, 39.5361
1991286052000, 177.30737, 16.707453, 39.54266
1991291019000, 177.29272, 16.709978, 39.55289
1991295980000, 177.2773, 16.709799, 39.55305
1991300998000, 177.25818, 16.7152, 39.558434
1991306285000, 177.24112, 16.712425, 39.55855
1991311080000, 177.22801, 16.714144, 39.55897
1991316082000, 177.21143, 16.71223, 39.55574
1991320976000, 177.19595, 16.71108, 39.55689
1991326021000, 177.18251, 16.708855, 39.55684
1991331299000, 177.16852, 16.707512, 39.555508
1991336085000, 177.15489, 16.703672, 39.55876
1991341086000, 177.145, 16.7, 39.56059
1991345981000, 177.13213, 16.692814, 39.564182
1991351017000, 177.12057, 16.685694, 39.570026
1991356259000, 177.11195, 16.677702, 39.572304
1991361115000, 177.09738, 16.676125, 39.577393
1991366094000, 177.08694, 16.673677, 39.5812
1991370983000, 177.07994, 16.668484, 39.585255
1991376022000, 177.07152, 16.664751, 39.591732
1991381291000, 177.0649, 16.659466, 39.592022
1991386048000, 177.06612, 16.646933, 39.599873
1991391100000, 177.06706, 16.63676, 39.605957
1991395970000, 177.06606, 16.624668, 39.605457
1991401028000, 177.06949, 16.608936, 39.610214
1991406270000, 177.06873, 16.59825, 39.61131
1991411062000, 177.07541, 16.592325, 39.607765
1991416093000, 177.0786, 16.587507, 39.60444
1991420980000, 177.08974, 16.577406, 39.60404
1991426024000, 177.10141, 16.57041, 39.60187
1991431286000, 177.11067, 16.562302, 39.597343
1991436053000, 177.11761, 16.555193, 39.59922
1991441090000, 177.11984, 16.551788, 39.59403
1991445979000, 177.13875, 16.539658, 39.59708
1991451012000, 177.15685, 16.529531, 39.59351
1991456276000, 177.17564, 16.520752, 39.59185
1991461081000, 177.19073, 16.514126, 39.59466
1991466096000, 177.20949, 16.50694, 39.590954
1991470979000, 177.22707, 16.499832, 39.58184
1991476023000, 177.2431, 16.49061, 39.57849
1991481331000, 177.26054, 16.482088, 39.572083
1991486076000, 177.27364, 16.480734, 39.556835
1991491103000, 177.28658, 16.476685, 39.5451
1991495978000, 177.3088, 16.47062, 39.536892
1991501021000, 177.32747, 16.466732, 39.53044
1991506308000, 177.3478, 16.460018, 39.5233
1991511092000, 177.36827, 16.456614, 39.52147
1991516091000, 177.38919, 16.44623, 39.51754
1991520981000, 177.41187, 16.439491, 39.51416
1991526030000, 177.43253, 16.429441, 39.50786
1991531301000, 177.45535, 16.420238, 39.502777
1991536058000, 177.4811, 16.407892, 39.495983
1991541090000, 177.50786, 16.397175, 39.490486
1991545977000, 177.53642, 16.383905, 39.485954
1991551018000, 177.56456, 16.36885, 39.47979
1991556316000, 177.59213, 16.36003, 39.47811
1991561066000, 177.61884, 16.339329, 39.473618
1991566090000, 177.6434, 16.326704, 39.472313
1991570980000, 177.66595, 16.310816, 39.471733
1991581341000, 177.68701, 16.297817, 39.47001
1991586096000, 177.7062, 16.285479, 39.467037
1991591092000, 177.72794, 16.271696, 39.465656
1991595979000, 177.74905, 16.259483, 39.46435
1991601027000, 177.76904, 16.2488, 39.463528
1991606311000, 177.79082, 16.236322, 39.460278
1991611049000, 177.80687, 16.226189, 39.46165
1991620979000, 177.82039, 16.212252, 39.46329
1991626028000, 177.84003, 16.201214, 39.460587
1991631308000, 177.85323, 16.190495, 39.463547
1991636106000, 177.87198, 16.173899, 39.460876
1991641092000, 177.88608, 16.161339, 39.460262
1991645980000, 177.8996, 16.146227, 39.461662
1991651015000, 177.90938, 16.13388, 39.45794
1991656184000, 177.92159, 16.121574, 39.459023
1991661092000, 177.92673, 16.106535, 39.463215
1991666090000, 177.93578, 16.093506, 39.463547
1991670981000, 177.94292, 16.08233, 39.4681
1991676026000, 177.94975, 16.067984, 39.467068
1991681191000, 177.9586, 16.05587, 39.471405
1991686093000, 177.96251, 16.05252, 39.470478
1991691081000, 177.96909, 16.042528, 39.47205
1991695977000, 177.96997, 16.041273, 39.476124
1991701029000, 177.972, 16.034029, 39.47611
1991706359000, 177.97421, 16.030373, 39.4785
1991711093000, 177.98167, 16.025394, 39.485004
1991716083000, 177.9893, 16.020779, 39.48837
1991720981000, 177.99028, 16.02238, 39.493855
1991726024000, 177.99396, 16.023167, 39.49452
1991731364000, 177.99698, 16.022789, 39.49717
1991736043000, 178.00061, 16.027811, 39.496048
1991741088000, 178.00645, 16.026016, 39.49788
1991745970000, 178.01186, 16.032686, 39.491776
1991751013000, 178.01634, 16.037416, 39.49269
1991756088000, 178.0211, 16.040573, 39.487865
1991761104000, 178.03046, 16.045828, 39.487656
1991766083000, 178.0419, 16.044464, 39.485943
1991776027000, 178.04501, 16.051594, 39.489098
1991781084000, 178.05211, 16.05206, 39.48725
1991786051000, 178.0621, 16.055035, 39.48847
1991791103000, 178.07704, 16.053522, 39.490677
1991795981000, 178.08289, 16.060566, 39.490696
1991801030000, 178.0971, 16.057474, 39.48908
1991806382000, 178.10666, 16.061209, 39.48929
1991811077000, 178.12357, 16.059134, 39.496437
1991816089000, 178.14108, 16.057291, 39.501575
1991820981000, 178.16219, 16.052832, 39.506992
1991826022000, 178.179, 16.051662, 39.515507
1991831214000, 178.1988, 16.0468, 39.52015
1991836088000, 178.21278, 16.047953, 39.519062
1991841101000, 178.2292, 16.045778, 39.52314
1991845979000, 178.24013, 16.047209, 39.52411
1991856327000, 178.25752, 16.042974, 39.52628
1991861074000, 178.27223, 16.043535, 39.53044
1991866094000, 178.28566, 16.04317, 39.532253
1991870989000, 178.30307, 16.044018, 39.531513
1991876027000, 178.31868, 16.04403, 39.53175
1991881398000, 178.33409, 16.047205, 39.52978
1991886081000, 178.34668, 16.044472, 39.522747
1991891082000, 178.36406, 16.041773, 39.520916
1991895978000, 178.37173, 16.040295, 39.51725
1991901030000, 178.38622, 16.038452, 39.51451
1991906225000, 178.39896, 16.033564, 39.514076
1991911032000, 178.41246, 16.027573, 39.516212
1991916084000, 178.42546, 16.019798, 39.51832
1991920980000, 178.43935, 16.011772, 39.520863
1991926022000, 178.44997, 16.00426, 39.523952
1991931148000, 178.46106, 15.997342, 39.52524
1991937935000, 178.46796, 15.994532, 39.534454
1991941007000, 178.47128, 15.992663, 39.536343
1991946108000, 178.47208, 15.988729, 39.5373
1991951020000, 178.47614, 15.983759, 39.53604
1991956392000, 178.47292, 15.981257, 39.5357
1991966091000, 178.47755, 15.974052, 39.540882
1991971101000, 178.48416, 15.966842, 39.54253
1991976043000, 178.4902, 15.967152, 39.544243
1991981137000, 178.497, 15.964319, 39.546288
1991986125000, 178.50317, 15.965488, 39.54758
1991991019000, 178.51308, 15.959946, 39.54867
1991996073000, 178.51749, 15.960548, 39.552334
1992000980000, 178.52037, 15.9554205, 39.55447
1992006372000, 178.51927, 15.955253, 39.56066
1992011039000, 178.52159, 15.951796, 39.561516
1992021007000, 178.52048, 15.953755, 39.563084
1992026023000, 178.52017, 15.948617, 39.566315
1992031408000, 178.52498, 15.942629, 39.567642
1992036071000, 178.52666, 15.936851, 39.574387
1992041098000, 178.53323, 15.927415, 39.582897
1992045978000, 178.53195, 15.922561, 39.5878
1992056389000, 178.53616, 15.913251, 39.595577
1992061064000, 178.53336, 15.911643, 39.59746
1992066082000, 178.53915, 15.899193, 39.600155
1992071032000, 178.54124, 15.892024, 39.60807
1992076029000, 178.54897, 15.878115, 39.61197
1992081414000, 178.54953, 15.869474, 39.618446
1992086106000, 178.55887, 15.861021, 39.62109
1992091116000, 178.56717, 15.848002, 39.623787
1992101024000, 178.57697, 15.839205, 39.626167
1992106135000, 178.58678, 15.828561, 39.627815
1992111076000, 178.5961, 15.817963, 39.636436
1992116093000, 178.6014, 15.811516, 39.644173
1992120981000, 178.61478, 15.798701, 39.64969
1992126024000, 178.62155, 15.792308, 39.658615
1992136017000, 178.63329, 15.779891, 39.662
1992141084000, 178.63962, 15.76839, 39.666553
1992145991000, 178.6505, 15.755966, 39.671833
1992151026000, 178.66219, 15.742407, 39.678013
1992156145000, 178.66711, 15.73166, 39.687195
1992166091000, 178.66843, 15.724207, 39.693237
1992171063000, 178.68219, 15.704904, 39.69731
1992176029000, 178.69089, 15.688939, 39.700768
1992181406000, 178.70377, 15.670794, 39.6984
1992186141000, 178.71487, 15.653622, 39.69769
1992190991000, 178.72554, 15.640322, 39.699673
1992196075000, 178.73712, 15.624959, 39.697174
1992206413000, 178.73868, 15.620134, 39.701733
1992211075000, 178.73601, 15.617428, 39.701862
1992216086000, 178.73563, 15.612972, 39.704315
1992220977000, 178.74289, 15.603936, 39.70939
1992226025000, 178.74658, 15.594797, 39.710873
1992231172000, 178.75374, 15.586753, 39.711975
1992236099000, 178.76083, 15.580272, 39.71308
1992241076000, 178.76665, 15.577155, 39.711765
1992245978000, 178.77408, 15.576931, 39.712048
1992251023000, 178.78166, 15.577568, 39.710827
1992256173000, 178.78732, 15.5786705, 39.713875
1992261070000, 178.78543, 15.583409, 39.71368
1992266105000, 178.78865, 15.583865, 39.715458
1992271032000, 178.78336, 15.590089, 39.715652
1992276024000, 178.77742, 15.5943, 39.715412
1992281445000, 178.78079, 15.594622, 39.713688
1992286106000, 178.77162, 15.601792, 39.715336
1992291083000, 178.77322, 15.604999, 39.712246
1992296033000, 178.78204, 15.599823, 39.712868
1992301027000, 178.79279, 15.5978775, 39.712822
1992306453000, 178.80153, 15.594382, 39.711193
1992311090000, 178.82014, 15.585345, 39.713985
1992316078000, 178.83243, 15.582773, 39.715088
1992320979000, 178.848, 15.58006, 39.715214
1992326027000, 178.86331, 15.57741, 39.71524
1992331418000, 178.87645, 15.574635, 39.713882
1992336109000, 178.8872, 15.57619, 39.71441
1992341100000, 178.90485, 15.570107, 39.710613
1992345981000, 178.91974, 15.566479, 39.707428
1992351027000, 178.93303, 15.56418, 39.70269
1992356174000, 178.94899, 15.560781, 39.697166
1992361115000, 178.95488, 15.561271, 39.696484
1992366099000, 178.96419, 15.561772, 39.691074
1992370978000, 178.96283, 15.569971, 39.689053
1992376022000, 178.96979, 15.572997, 39.681404
1992381187000, 178.97029, 15.578993, 39.67898
1992386094000, 178.97575, 15.580476, 39.67221
1992391093000, 178.98164, 15.57835, 39.670364
1992395978000, 178.98965, 15.576959, 39.66189
1992401023000, 178.99863, 15.577459, 39.65885
1992406204000, 179.00883, 15.575742, 39.654438
1992411057000, 179.01547, 15.572386, 39.644142
1992416084000, 179.02318, 15.573025, 39.64078
1992420978000, 179.02547, 15.570992, 39.63677
1992426035000, 179.02805, 15.569315, 39.637135
1992431469000, 179.02972, 15.569107, 39.63489
1992436112000, 179.02737, 15.572097, 39.6304
1992441081000, 179.02443, 15.571794, 39.628513
1992445980000, 179.02283, 15.57275, 39.622326
1992451028000, 179.02031, 15.57176, 39.618744
1992456196000, 179.01688, 15.569907, 39.614357
1992461130000, 179.01836, 15.568656, 39.614162
1992466086000, 179.02782, 15.562166, 39.611
1992471002000, 179.02913, 15.555687, 39.61003
1992476026000, 179.03606, 15.547831, 39.608135
1992481479000, 179.04442, 15.540395, 39.60869
1992486109000, 179.05275, 15.527196, 39.609287
1992491088000, 179.06364, 15.516612, 39.607136
1992495980000, 179.0705, 15.504798, 39.61048
1992501024000, 179.07294, 15.4971075, 39.613182
1992506208000, 179.07994, 15.483945, 39.611794
1992511047000, 179.08144, 15.474805, 39.62083
1992516101000, 179.08505, 15.46305, 39.624306
1992520978000, 179.08846, 15.449739, 39.62998
1992526029000, 179.09154, 15.437873, 39.635742
1992531196000, 179.09532, 15.424639, 39.63739
1992536037000, 179.09436, 15.4200735, 39.640274
1992541084000, 179.09193, 15.415981, 39.640373
1992545978000, 179.0914, 15.411759, 39.63913
1992551028000, 179.09071, 15.410257, 39.63916
1992556012000, 179.09296, 15.404193, 39.63516
1992561089000, 179.08768, 15.4062805, 39.637943
1992566084000, 179.08334, 15.407932, 39.640118
1992570978000, 179.0754, 15.405741, 39.63633
1992576031000, 179.06795, 15.405808, 39.63935
1992581495000, 179.0628, 15.403279, 39.641655
1992586076000, 179.05804, 15.406488, 39.634132
1992591087000, 179.05695, 15.410403, 39.632717
1992595979000, 179.0505, 15.409534, 39.633587
1992601026000, 179.047, 15.410655, 39.631832
1992606223000, 179.04369, 15.410097, 39.633965
1992611045000, 179.03647, 15.412646, 39.632217
1992616115000, 179.03177, 15.412636, 39.631912
1992620984000, 179.0289, 15.420448, 39.621128
1992626023000, 179.02441, 15.430657, 39.611404
1992631230000, 179.02252, 15.437395, 39.599392
1992636035000, 179.02765, 15.436563, 39.586205
1992641085000, 179.03027, 15.433573, 39.576202
1992645969000, 179.04094, 15.429244, 39.56064
1992651022000, 179.04611, 15.42167, 39.546436
1992656028000, 179.05351, 15.416475, 39.533638
1992661048000, 179.0593, 15.409244, 39.528786
1992666083000, 179.06561, 15.400294, 39.52535
1992670979000, 179.07423, 15.388915, 39.519573
1992676024000, 179.08492, 15.377445, 39.516846
1992681039000, 179.09283, 15.366723, 39.51593
1992686055000, 179.09785, 15.358959, 39.515316
1992691105000, 179.10127, 15.351933, 39.514812
1992695979000, 179.10962, 15.336876, 39.51668
1992706037000, 179.1165, 15.324858, 39.517002
1992711019000, 179.12141, 15.312762, 39.518322
1992716085000, 179.1285, 15.29745, 39.519848
1992720976000, 179.14084, 15.280731, 39.52333
1992726027000, 179.15118, 15.266187, 39.527184
1992730993000, 179.16043, 15.251213, 39.528625
1992736046000, 179.16776, 15.236543, 39.531803
1992741094000, 179.1715, 15.226225, 39.52952
1992745981000, 179.17493, 15.216823, 39.52868
1992756055000, 179.17952, 15.207709, 39.53267
1992761066000, 179.18098, 15.200245, 39.530937
1992766086000, 179.18202, 15.194608, 39.53405
1992771030000, 179.17747, 15.19213, 39.533886
1992776026000, 179.17665, 15.189691, 39.537148
1992781491000, 179.17381, 15.188025, 39.537533
1992786098000, 179.17387, 15.187443, 39.533955
1992791088000, 179.17517, 15.186853, 39.532593
1992795979000, 179.18779, 15.184018, 39.533028
1992801024000, 179.19235, 15.1864605, 39.529163
1992806070000, 179.20532, 15.180909, 39.527893
1992811037000, 179.2121, 15.179566, 39.528214
1992816085000, 179.21918, 15.176519, 39.523426
1992820977000, 179.22562, 15.171209, 39.529728
1992826026000, 179.23264, 15.168228, 39.5308
1992831058000, 179.23906, 15.161347, 39.53735
1992836015000, 179.2436, 15.15958, 39.535694
1992841082000, 179.24777, 15.156422, 39.53826
1992846008000, 179.25464, 15.152728, 39.540447
1992851029000, 179.26224, 15.148354, 39.541454
1992856409000, 179.26059, 15.150215, 39.53887
1992861119000, 179.264, 15.151688, 39.53858
1992866099000, 179.26329, 15.156507, 39.533848
1992871049000, 179.26422, 15.164299, 39.529484
1992876026000, 179.26431, 15.167519, 39.527573
1992881050000, 179.26227, 15.172023, 39.52645
1992886138000, 179.261, 15.17292, 39.532555
1992891060000, 179.26633, 15.174471, 39.532616
1992896072000, 179.27203, 15.177777, 39.534313
1992901037000, 179.26907, 15.182281, 39.53682
1992906494000, 179.27174, 15.187556, 39.540882
1992911282000, 179.26225, 15.195712, 39.54577
1992916082000, 179.25378, 15.206196, 39.54918
1992921098000, 179.24716, 15.20636, 39.55698
1992926027000, 179.23949, 15.213942, 39.563725
1992931525000, 179.23041, 15.219065, 39.57099
1992936072000, 179.22241, 15.218325, 39.57946
1992941083000, 179.21362, 15.220362, 39.58722
1992946058000, 179.20935, 15.216328, 39.58821
1992951025000, 179.20894, 15.212065, 39.596207
1992956006000, 179.19998, 15.2108, 39.596493
1992961069000, 179.199, 15.207397, 39.59968
1992966083000, 179.19664, 15.205144, 39.60788
1992971046000, 179.18365, 15.202941, 39.616714
1992976027000, 179.16875, 15.197996, 39.62508
1992981085000, 179.16011, 15.193681, 39.636776
1992986055000, 179.14719, 15.193508, 39.646152
1992991104000, 179.13661, 15.191061, 39.654762
1992995982000, 179.12375, 15.195274, 39.66135
1993001065000, 179.11555, 15.19769, 39.66978
1993006103000, 179.10745, 15.198039, 39.675255
1993011077000, 179.09666, 15.202081, 39.67987
1993016059000, 179.0904, 15.198044, 39.685284
1993021049000, 179.0872, 15.194404, 39.69167
1993026010000, 179.07457, 15.1947565, 39.698334
1993036047000, 179.07025, 15.187705, 39.704533
1993041093000, 179.06018, 15.192022, 39.711636
1993046015000, 179.0505, 15.19161, 39.717552
1993051104000, 179.04301, 15.191446, 39.720196
1993055933000, 179.03722, 15.187212, 39.720676
1993060944000, 179.02922, 15.185194, 39.72152
1993065942000, 179.01509, 15.188321, 39.71935
1993070957000, 179.0106, 15.182067, 39.717396
1993075942000, 178.9955, 15.191146, 39.7152
1993080948000, 178.98566, 15.192636, 39.715187
1993085987000, 178.96274, 15.200047, 39.70914
1993090943000, 178.94092, 15.206741, 39.712868
1993095920000, 178.92268, 15.212151, 39.712547
1993100912000, 178.91148, 15.21588, 39.716713
1993105938000, 178.89818, 15.2219305, 39.70726
1993110990000, 178.89178, 15.2225685, 39.70691
1993115969000, 178.88712, 15.227915, 39.698853
1993120975000, 178.88358, 15.228539, 39.6875
1993125933000, 178.879, 15.233177, 39.687298
1993130941000, 178.86769, 15.243943, 39.67449
1993135984000, 178.86684, 15.243021, 39.671402
1993140973000, 178.86057, 15.247696, 39.66396
1993145949000, 178.86328, 15.240819, 39.659626
1993150953000, 178.85918, 15.242168, 39.654392
1993155932000, 178.86314, 15.236917, 39.647804
1993161001000, 178.86082, 15.239078, 39.639954
1993165924000, 178.85693, 15.234428, 39.637188
1993170942000, 178.84888, 15.23126, 39.630848
1993175900000, 178.84294, 15.230999, 39.630947
1993180924000, 178.83415, 15.226905, 39.63061
1993185929000, 178.8236, 15.228105, 39.627304
1993190961000, 178.81204, 15.225994, 39.6265
1993195896000, 178.8023, 15.222211, 39.6249
1993200895000, 178.7947, 15.220833, 39.624912
1993210967000, 178.78604, 15.214147, 39.62524
1993215882000, 178.782, 15.208794, 39.625793
1993220912000, 178.77023, 15.203381, 39.63076
1993225868000, 178.75513, 15.199273, 39.63488
1993230909000, 178.74023, 15.193721, 39.641212
1993235939000, 178.72954, 15.179258, 39.649593
1993240910000, 178.71779, 15.168304, 39.66158
1993245895000, 178.7131, 15.152918, 39.67046
1993250904000, 178.71045, 15.136852, 39.67776
1993255894000, 178.70969, 15.121141, 39.6821
1993261092000, 178.708, 15.107269, 39.68403
1993265920000, 178.71053, 15.091135, 39.68642
1993270896000, 178.70468, 15.079918, 39.68744
1993275901000, 178.69266, 15.07435, 39.68914
1993280900000, 178.67741, 15.068835, 39.68874
1993290934000, 178.66832, 15.061643, 39.693302
1993295917000, 178.65587, 15.056238, 39.698174
1993300911000, 178.63826, 15.053974, 39.70058
1993306039000, 178.62735, 15.053864, 39.701153
1993311018000, 178.61653, 15.058055, 39.70309
1993315981000, 178.61134, 15.053003, 39.700077
1993320968000, 178.60616, 15.052894, 39.698284
1993325945000, 178.59901, 15.050582, 39.696823
1993330970000, 178.6033, 15.044909, 39.693394
1993335969000, 178.60129, 15.044954, 39.69217
1993341016000, 178.61754, 15.033714, 39.689415
1993346015000, 178.63518, 15.016706, 39.68539
1993350985000, 178.65576, 15.008352, 39.68089
1993356027000, 178.67052, 15.001125, 39.676468
1993361370000, 178.6901, 14.988887, 39.674847
1993366104000, 178.70468, 14.983835, 39.674267
1993376030000, 178.72287, 14.9693575, 39.67258
1993380975000, 178.74275, 14.954971, 39.669006
1993386038000, 178.76625, 14.945926, 39.663097
1993396383000, 178.78496, 14.933179, 39.66147
1993401031000, 178.81062, 14.92042, 39.651672
1993405974000, 178.8356, 14.909773, 39.64501
1993411032000, 178.85701, 14.900096, 39.63838
1993416009000, 178.87953, 14.890867, 39.63588
1993421022000, 178.90152, 14.880902, 39.63211
1993430981000, 178.92293, 14.872888, 39.633945
1993436115000, 178.94113, 14.865208, 39.62615
1993441054000, 178.95168, 14.854552, 39.625015
1993446070000, 178.96452, 14.847642, 39.618496
1993451070000, 178.98915, 14.831801, 39.61126
1993456010000, 179.01184, 14.8186, 39.601532
1993461084000, 179.0376, 14.803375, 39.5939
1993466083000, 179.06433, 14.788275, 39.583954
1993471358000, 179.08687, 14.777026, 39.5773
1993476022000, 179.1164, 14.760488, 39.570076
1993481016000, 179.14162, 14.74802, 39.564846
1993486106000, 179.17009, 14.733871, 39.55863
1993491152000, 179.19768, 14.7201, 39.55555
1993496054000, 179.21957, 14.712566, 39.549706
1993501018000, 179.24706, 14.702026, 39.546196
1993511110000, 179.27074, 14.690933, 39.544678
1993516109000, 179.28812, 14.679182, 39.545097
1993521088000, 179.30469, 14.668533, 39.548763
1993526002000, 179.31737, 14.656557, 39.55374
1993531112000, 179.33351, 14.643741, 39.556458
1993536022000, 179.33951, 14.635759, 39.563545
1993541046000, 179.35164, 14.624071, 39.56976
1993546105000, 179.35513, 14.618155, 39.580948
1993551047000, 179.3632, 14.607423, 39.584633
1993556039000, 179.36458, 14.596599, 39.59507
1993561645000, 179.36707, 14.588978, 39.602505
1993566038000, 179.36667, 14.579939, 39.609863
1993571454000, 179.37263, 14.5721655, 39.62086
1993576085000, 179.38116, 14.564042, 39.626385
1993581455000, 179.38617, 14.55833, 39.63153
1993586059000, 179.39609, 14.550308, 39.62957
1993591096000, 179.3981, 14.545372, 39.63459
1993596074000, 179.40225, 14.534881, 39.636368
1993601024000, 179.40588, 14.52875, 39.638634
1993606009000, 179.40816, 14.519528, 39.641193
1993611102000, 179.40994, 14.514449, 39.643547
1993616029000, 179.41626, 14.503068, 39.650726
1993621070000, 179.42607, 14.489213, 39.653725
1993626259000, 179.42854, 14.484358, 39.659508
1993631074000, 179.4375, 14.471919, 39.664726
1993636013000, 179.44186, 14.460056, 39.67257
1993641076000, 179.44872, 14.444483, 39.673317
1993645978000, 179.456, 14.430169, 39.678566
1993651022000, 179.45746, 14.419465, 39.683163
1993655976000, 179.45982, 14.408052, 39.68398
1993661032000, 179.45215, 14.400581, 39.688866
1993666081000, 179.44589, 14.390533, 39.689236
1993671081000, 179.4395, 14.377241, 39.69577
1993676033000, 179.43208, 14.366914, 39.70025
1993681107000, 179.43501, 14.351481, 39.706104
1993686126000, 179.43597, 14.339455, 39.709286
1993690992000, 179.43565, 14.32733, 39.713097
1993696073000, 179.43452, 14.318231, 39.717648
1993701031000, 179.43532, 14.307796, 39.72185
1993706069000, 179.43349, 14.300266, 39.724613
1993711119000, 179.43628, 14.290436, 39.723667
1993716016000, 179.45174, 14.282316, 39.723724
1993721068000, 179.46173, 14.275134, 39.72731
1993726146000, 179.46722, 14.266628, 39.725006
1993731071000, 179.4705, 14.261483, 39.722122
1993741091000, 179.47931, 14.254969, 39.713196
1993746024000, 179.48991, 14.246819, 39.70605
1993751027000, 179.4988, 14.238411, 39.706352
1993755974000, 179.50967, 14.230672, 39.697666
1993761040000, 179.5196, 14.222518, 39.692562
1993766103000, 179.53027, 14.214734, 39.68751
1993771004000, 179.53824, 14.208865, 39.680225
1993776000000, 179.54915, 14.199232, 39.676193
1993781005000, 179.55484, 14.196593, 39.669434
1993786056000, 179.5623, 14.194041, 39.66384
1993791023000, 179.56699, 14.187898, 39.663754
1993796072000, 179.56982, 14.18814, 39.66109
1993801015000, 179.56633, 14.1860285, 39.658585
1993806065000, 179.56502, 14.188486, 39.662483
1993811055000, 179.55655, 14.199426, 39.656776
1993816102000, 179.5516, 14.21005, 39.656544
1993820970000, 179.54922, 14.21871, 39.651234
1993826035000, 179.54124, 14.226673, 39.645382
1993831065000, 179.54079, 14.230855, 39.63875
1993836180000, 179.53407, 14.244702, 39.635338
1993841086000, 179.52786, 14.2531805, 39.62616
1993845977000, 179.51537, 14.265836, 39.627426
1993851023000, 179.50432, 14.276175, 39.620983
1993855977000, 179.49332, 14.287582, 39.619595
1993861070000, 179.48051, 14.298965, 39.6158
1993866042000, 179.46997, 14.31067, 39.611973
1993871062000, 179.46156, 14.320355, 39.606834
1993881031000, 179.45546, 14.328777, 39.603333
1993886140000, 179.4474, 14.337491, 39.603737
1993891073000, 179.43745, 14.346465, 39.604115
1993896074000, 179.43166, 14.351824, 39.6006
1993901391000, 179.43848, 14.355647, 39.598545
1993906070000, 179.44054, 14.362386, 39.59132
1993911022000, 179.44083, 14.361801, 39.58903
1993916014000, 179.44147, 14.362946, 39.58671
1993921069000, 179.4393, 14.363358, 39.585796
1993926023000, 179.4348, 14.361015, 39.591923
1993931066000, 179.42679, 14.362158, 39.60171
1993936054000, 179.42122, 14.357745, 39.601627
1993941017000, 179.42308, 14.3518305, 39.60417
1993946030000, 179.41841, 14.350448, 39.602325
1993951033000, 179.42134, 14.345388, 39.608055
1993956489000, 179.42088, 14.335679, 39.610085
1993961056000, 179.42667, 14.326267, 39.61844
1993966081000, 179.42776, 14.317234, 39.620205
1993970988000, 179.43355, 14.307305, 39.622208
1993975997000, 179.43707, 14.299422, 39.627495
1993981039000, 179.44029, 14.292254, 39.62413
1993986032000, 179.44344, 14.290508, 39.62252
1993991088000, 179.44366, 14.278674, 39.628994
1993996047000, 179.44193, 14.272431, 39.63072
1994006065000, 179.44183, 14.271532, 39.632618
1994011056000, 179.4412, 14.267344, 39.632244
1994016044000, 179.44748, 14.260292, 39.626328
1994020979000, 179.45271, 14.252829, 39.62109
1994026005000, 179.45456, 14.246727, 39.616653
1994036044000, 179.4569, 14.241663, 39.607723
1994041050000, 179.45818, 14.236082, 39.6074
1994046006000, 179.46289, 14.234237, 39.60411
1994051000000, 179.47096, 14.226845, 39.60413
1994056008000, 179.47783, 14.220783, 39.603638
1994061049000, 179.48491, 14.207754, 39.605473
1994065999000, 179.48685, 14.198123, 39.606136
1994071002000, 179.49014, 14.184593, 39.60508
1994075992000, 179.48656, 14.177714, 39.611427
1994086305000, 179.48509, 14.168686, 39.61011
1994091053000, 179.48723, 14.158526, 39.61664
1994100996000, 179.50055, 14.151177, 39.616386
1994106338000, 179.5077, 14.143051, 39.61527
1994111080000, 179.51611, 14.138625, 39.616287
1994116047000, 179.52016, 14.137152, 39.616135
1994121037000, 179.52367, 14.138053, 39.61129
1994126011000, 179.53069, 14.133612, 39.607407
1994131005000, 179.53664, 14.13851, 39.60538
